# DATE: 2024-07-07  UNITS: metal  CONTRIBUTOR: By STUDENT			
# FHEP: Temp 77 [K], mr 1 [g/mol], Sigma 2.96 [A], Epsilon 0.002947127975604 [eV]			
			
ENTRY			
N 1200 R 1.0 12.99			
			
1	1.00	2.365146.E+04	2.782123.E+05
2	1.01	2.066824.E+04	2.401984.E+05
3	1.02	1.808651.E+04	2.076921.E+05
4	1.03	1.584892.E+04	1.798513.E+05
5	1.04	1.390679.E+04	1.559693.E+05
6	1.05	1.221870.E+04	1.354517.E+05
7	1.06	1.074937.E+04	1.177982.E+05
8	1.07	9.468712.E+03	1.025865.E+05
9	1.08	8.350987.E+03	8.945994.E+04
10	1.09	7.374183.E+03	7.811660.E+04
11	1.10	6.519427.E+03	6.830055.E+04
12	1.11	5.770519.E+03	5.979451.E+04
13	1.12	5.113532.E+03	5.241372.E+04
14	1.13	4.536477.E+03	4.600085.E+04
15	1.14	4.029019.E+03	4.042172.E+04
16	1.15	3.582236.E+03	3.556172.E+04
17	1.16	3.188416.E+03	3.132284.E+04
18	1.17	2.840885.E+03	2.762114.E+04
19	1.18	2.533858.E+03	2.438460.E+04
20	1.19	2.262314.E+03	2.155139.E+04
21	1.20	2.021892.E+03	1.906833.E+04
22	1.21	1.808800.E+03	1.688963.E+04
23	1.22	1.619731.E+03	1.497581.E+04
24	1.23	1.451805.E+03	1.329277.E+04
25	1.24	1.302506.E+03	1.181107.E+04
26	1.25	1.169635.E+03	1.050519.E+04
27	1.26	1.051269.E+03	9.353042.E+03
28	1.27	9.457231.E+02	8.335461.E+03
29	1.28	8.515186.E+02	7.435798.E+03
30	1.29	7.673584.E+02	6.639577.E+03
31	1.30	6.921024.E+02	5.934195.E+03
32	1.31	6.247475.E+02	5.308670.E+03
33	1.32	5.644106.E+02	4.753420.E+03
34	1.33	5.103129.E+02	4.260077.E+03
35	1.34	4.617673.E+02	3.821322.E+03
36	1.35	4.181669.E+02	3.430753.E+03
37	1.36	3.789752.E+02	3.082756.E+03
38	1.37	3.437173.E+02	2.772410.E+03
39	1.38	3.119725.E+02	2.495394.E+03
40	1.39	2.833678.E+02	2.247911.E+03
41	1.40	2.575724.E+02	2.026620.E+03
42	1.41	2.342923.E+02	1.828579.E+03
43	1.42	2.132660.E+02	1.651196.E+03
44	1.43	1.942611.E+02	1.492184.E+03
45	1.44	1.770704.E+02	1.349522.E+03
46	1.45	1.615094.E+02	1.221425.E+03
47	1.46	1.474133.E+02	1.106316.E+03
48	1.47	1.346352.E+02	1.002794.E+03
49	1.48	1.230437.E+02	9.096211.E+02
50	1.49	1.125213.E+02	8.256984.E+02
51	1.50	1.029629.E+02	7.500500.E+02
52	1.51	9.427433.E+01	6.818090.E+02
53	1.52	8.637121.E+01	6.202046.E+02
54	1.53	7.917781.E+01	5.645509.E+02
55	1.54	7.262617.E+01	5.142367.E+02
56	1.55	6.665524.E+01	4.687176.E+02
57	1.56	6.121013.E+01	4.275075.E+02
58	1.57	5.624146.E+01	3.901727.E+02
59	1.58	5.170477.E+01	3.563256.E+02
60	1.59	4.756000.E+01	3.256197.E+02
61	1.60	4.377105.E+01	2.977449.E+02
62	1.61	4.030533.E+01	2.724235.E+02
63	1.62	3.713344.E+01	2.494065.E+02
64	1.63	3.422881.E+01	2.284709.E+02
65	1.64	3.156742.E+01	2.094163.E+02
66	1.65	2.912755.E+01	1.920628.E+02
67	1.66	2.688952.E+01	1.762488.E+02
68	1.67	2.483553.E+01	1.618288.E+02
69	1.68	2.294944.E+01	1.486720.E+02
70	1.69	2.121661.E+01	1.366606.E+02
71	1.70	1.962376.E+01	1.256885.E+02
72	1.71	1.815882.E+01	1.156597.E+02
73	1.72	1.681084.E+01	1.064880.E+02
74	1.73	1.556987.E+01	9.809527.E+01
75	1.74	1.442684.E+01	9.041107.E+01
76	1.75	1.337351.E+01	8.337165.E+01
77	1.76	1.240237.E+01	7.691936.E+01
78	1.77	1.150659.E+01	7.100202.E+01
79	1.78	1.067993.E+01	6.557236.E+01
80	1.79	9.916697.E+00	6.058754.E+01
81	1.80	9.211710.E+00	5.600870.E+01
82	1.81	8.560228.E+00	5.180061.E+01
83	1.82	7.957922.E+00	4.793126.E+01
84	1.83	7.400835.E+00	4.437157.E+01
85	1.84	6.885347.E+00	4.109513.E+01
86	1.85	6.408149.E+00	3.807789.E+01
87	1.86	5.966209.E+00	3.529800.E+01
88	1.87	5.556752.E+00	3.273553.E+01
89	1.88	5.177232.E+00	3.037236.E+01
90	1.89	4.825319.E+00	2.819194.E+01
91	1.90	4.498873.E+00	2.617921.E+01
92	1.91	4.195930.E+00	2.432040.E+01
93	1.92	3.914688.E+00	2.260297.E+01
94	1.93	3.653493.E+00	2.101543.E+01
95	1.94	3.410821.E+00	1.954731.E+01
96	1.95	3.185276.E+00	1.818902.E+01
97	1.96	2.975570.E+00	1.693181.E+01
98	1.97	2.780518.E+00	1.576763.E+01
99	1.98	2.599033.E+00	1.468915.E+01
100	1.99	2.430108.E+00	1.368963.E+01
101	2.00	2.272821.E+00	1.276291.E+01
102	2.01	2.126317.E+00	1.190333.E+01
103	2.02	1.989811.E+00	1.110569.E+01
104	2.03	1.862578.E+00	1.036524.E+01
105	2.04	1.743947.E+00	9.677602.E+00
106	2.05	1.633301.E+00	9.038750.E+00
107	2.06	1.530068.E+00	8.444995.E+00
108	2.07	1.433721.E+00	7.892940.E+00
109	2.08	1.343773.E+00	7.379459.E+00
110	2.09	1.259771.E+00	6.901676.E+00
111	2.10	1.181299.E+00	6.456944.E+00
112	2.11	1.107970.E+00	6.042823.E+00
113	2.12	1.039427.E+00	5.657065.E+00
114	2.13	9.753388.E-01	5.297597.E+00
115	2.14	9.153977.E-01	4.962508.E+00
116	2.15	8.593195.E-01	4.650035.E+00
117	2.16	8.068404.E-01	4.358549.E+00
118	2.17	7.577158.E-01	4.086546.E+00
119	2.18	7.117186.E-01	3.832638.E+00
120	2.19	6.686380.E-01	3.595540.E+00
121	2.20	6.282784.E-01	3.374066.E+00
122	2.21	5.904579.E-01	3.167119.E+00
123	2.22	5.550077.E-01	2.973681.E+00
124	2.23	5.217707.E-01	2.792814.E+00
125	2.24	4.906009.E-01	2.623645.E+00
126	2.25	4.613627.E-01	2.465370.E+00
127	2.26	4.339295.E-01	2.317239.E+00
128	2.27	4.081839.E-01	2.178560.E+00
129	2.28	3.840163.E-01	2.048691.E+00
130	2.29	3.613249.E-01	1.927036.E+00
131	2.30	3.400145.E-01	1.813040.E+00
132	2.31	3.199968.E-01	1.706191.E+00
133	2.32	3.011891.E-01	1.606011.E+00
134	2.33	2.835146.E-01	1.512058.E+00
135	2.34	2.669015.E-01	1.423918.E+00
136	2.35	2.512827.E-01	1.341210.E+00
137	2.36	2.365959.E-01	1.263577.E+00
138	2.37	2.227826.E-01	1.190689.E+00
139	2.38	2.097884.E-01	1.122235.E+00
140	2.39	1.975624.E-01	1.057931.E+00
141	2.40	1.860570.E-01	9.975074.E-01
142	2.41	1.752278.E-01	9.407164.E-01
143	2.42	1.650332.E-01	8.873257.E-01
144	2.43	1.554344.E-01	8.371191.E-01
145	2.44	1.463949.E-01	7.898949.E-01
146	2.45	1.378809.E-01	7.454649.E-01
147	2.46	1.298604.E-01	7.036538.E-01
148	2.47	1.223036.E-01	6.642977.E-01
149	2.48	1.151827.E-01	6.272438.E-01
150	2.49	1.084716.E-01	5.923492.E-01
151	2.50	1.021457.E-01	5.594805.E-01
152	2.51	9.618204.E-02	5.285132.E-01
153	2.52	9.055918.E-02	4.993307.E-01
154	2.53	8.525694.E-02	4.718241.E-01
155	2.54	8.025640.E-02	4.458915.E-01
156	2.55	7.553982.E-02	4.214377.E-01
157	2.56	7.109056.E-02	3.983734.E-01
158	2.57	6.689300.E-02	3.766153.E-01
159	2.58	6.293247.E-02	3.560851.E-01
160	2.59	5.919521.E-02	3.367096.E-01
161	2.60	5.566830.E-02	3.184204.E-01
162	2.61	5.233958.E-02	3.011531.E-01
163	2.62	4.919765.E-02	2.848475.E-01
164	2.63	4.623179.E-02	2.694472.E-01
165	2.64	4.343192.E-02	2.548992.E-01
166	2.65	4.078855.E-02	2.411539.E-01
167	2.66	3.829280.E-02	2.281646.E-01
168	2.67	3.593626.E-02	2.158877.E-01
169	2.68	3.371107.E-02	2.042820.E-01
170	2.69	3.160979.E-02	1.933091.E-01
171	2.70	2.962546.E-02	1.829326.E-01
172	2.71	2.775150.E-02	1.731187.E-01
173	2.72	2.598173.E-02	1.638352.E-01
174	2.73	2.431031.E-02	1.550523.E-01
175	2.74	2.273176.E-02	1.467416.E-01
176	2.75	2.124091.E-02	1.388765.E-01
177	2.76	1.983289.E-02	1.314322.E-01
178	2.77	1.850312.E-02	1.243851.E-01
179	2.78	1.724725.E-02	1.177131.E-01
180	2.79	1.606123.E-02	1.113953.E-01
181	2.80	1.494120.E-02	1.054122.E-01
182	2.81	1.388353.E-02	9.974537.E-02
183	2.82	1.288480.E-02	9.437735.E-02
184	2.83	1.194179.E-02	8.929180.E-02
185	2.84	1.105146.E-02	8.447330.E-02
186	2.85	1.021092.E-02	7.990730.E-02
187	2.86	9.417470.E-03	7.558011.E-02
188	2.87	8.668546.E-03	7.147880.E-02
189	2.88	7.961732.E-03	6.759118.E-02
190	2.89	7.294745.E-03	6.390576.E-02
191	2.90	6.665428.E-03	6.041169.E-02
192	2.91	6.071747.E-03	5.709875.E-02
193	2.92	5.511777.E-03	5.395727.E-02
194	2.93	4.983701.E-03	5.097813.E-02
195	2.94	4.485801.E-03	4.815274.E-02
196	2.95	4.016453.E-03	4.547296.E-02
197	2.96	3.574123.E-03	4.293111.E-02
198	2.97	3.157361.E-03	4.051993.E-02
199	2.98	2.764794.E-03	3.823258.E-02
200	2.99	2.395125.E-03	3.606257.E-02
201	3.00	2.047128.E-03	3.400379.E-02
202	3.01	1.719643.E-03	3.205043.E-02
203	3.02	1.411570.E-03	3.019704.E-02
204	3.03	1.121873.E-03	2.843843.E-02
205	3.04	8.495682.E-04	2.676970.E-02
206	3.05	5.937254.E-04	2.518622.E-02
207	3.06	3.534647.E-04	2.368361.E-02
208	3.07	1.279530.E-04	2.225772.E-02
209	3.08	-8.359835.E-05	2.090462.E-02
210	3.09	-2.819360.E-04	1.962059.E-02
211	3.10	-4.677669.E-04	1.840211.E-02
212	3.11	-6.417604.E-04	1.724585.E-02
213	3.12	-8.045505.E-04	1.614865.E-02
214	3.13	-9.567377.E-04	1.510752.E-02
215	3.14	-1.098891.E-03	1.411961.E-02
216	3.15	-1.231548.E-03	1.318226.E-02
217	3.16	-1.355220.E-03	1.229290.E-02
218	3.17	-1.470391.E-03	1.144913.E-02
219	3.18	-1.577518.E-03	1.064867.E-02
220	3.19	-1.677036.E-03	9.889326.E-03
221	3.20	-1.769356.E-03	9.169060.E-03
222	3.21	-1.854868.E-03	8.485915.E-03
223	3.22	-1.933941.E-03	7.838041.E-03
224	3.23	-2.006926.E-03	7.223681.E-03
225	3.24	-2.074155.E-03	6.641170.E-03
226	3.25	-2.135942.E-03	6.088925.E-03
227	3.26	-2.192586.E-03	5.565447.E-03
228	3.27	-2.244370.E-03	5.069311.E-03
229	3.28	-2.291561.E-03	4.599165.E-03
230	3.29	-2.334414.E-03	4.153723.E-03
231	3.30	-2.373169.E-03	3.731768.E-03
232	3.31	-2.408057.E-03	3.332142.E-03
233	3.32	-2.439292.E-03	2.953743.E-03
234	3.33	-2.467081.E-03	2.595529.E-03
235	3.34	-2.491618.E-03	2.256505.E-03
236	3.35	-2.513089.E-03	1.935729.E-03
237	3.36	-2.531668.E-03	1.632305.E-03
238	3.37	-2.547521.E-03	1.345380.E-03
239	3.38	-2.560807.E-03	1.074147.E-03
240	3.39	-2.571674.E-03	8.178340.E-04
241	3.40	-2.580264.E-03	5.757108.E-04
242	3.41	-2.586711.E-03	3.470816.E-04
243	3.42	-2.591143.E-03	1.312850.E-04
244	3.43	-2.593681.E-03	-7.230769.E-05
245	3.44	-2.594439.E-03	-2.642947.E-04
246	3.45	-2.593525.E-03	-4.452448.E-04
247	3.46	-2.591043.E-03	-6.156991.E-04
248	3.47	-2.587091.E-03	-7.761723.E-04
249	3.48	-2.581759.E-03	-9.271541.E-04
250	3.49	-2.575137.E-03	-1.069111.E-03
251	3.50	-2.567308.E-03	-1.202485.E-03
252	3.51	-2.558350.E-03	-1.327699.E-03
253	3.52	-2.548338.E-03	-1.445154.E-03
254	3.53	-2.537342.E-03	-1.555233.E-03
255	3.54	-2.525430.E-03	-1.658299.E-03
256	3.55	-2.512666.E-03	-1.754698.E-03
257	3.56	-2.499108.E-03	-1.844761.E-03
258	3.57	-2.484816.E-03	-1.928799.E-03
259	3.58	-2.469841.E-03	-2.007114.E-03
260	3.59	-2.454237.E-03	-2.079988.E-03
261	3.60	-2.438050.E-03	-2.147693.E-03
262	3.61	-2.421327.E-03	-2.210486.E-03
263	3.62	-2.404111.E-03	-2.268614.E-03
264	3.63	-2.386443.E-03	-2.322310.E-03
265	3.64	-2.368362.E-03	-2.371796.E-03
266	3.65	-2.349905.E-03	-2.417285.E-03
267	3.66	-2.331107.E-03	-2.458979.E-03
268	3.67	-2.311999.E-03	-2.497071.E-03
269	3.68	-2.292614.E-03	-2.531743.E-03
270	3.69	-2.272981.E-03	-2.563171.E-03
271	3.70	-2.253127.E-03	-2.591520.E-03
272	3.71	-2.233079.E-03	-2.616949.E-03
273	3.72	-2.212861.E-03	-2.639609.E-03
274	3.73	-2.192496.E-03	-2.659644.E-03
275	3.74	-2.172007.E-03	-2.677191.E-03
276	3.75	-2.151414.E-03	-2.692380.E-03
277	3.76	-2.130737.E-03	-2.705336.E-03
278	3.77	-2.109995.E-03	-2.716176.E-03
279	3.78	-2.089204.E-03	-2.725015.E-03
280	3.79	-2.068381.E-03	-2.731959.E-03
281	3.80	-2.047541.E-03	-2.737110.E-03
282	3.81	-2.026699.E-03	-2.740567.E-03
283	3.82	-2.005868.E-03	-2.742422.E-03
284	3.83	-1.985062.E-03	-2.742764.E-03
285	3.84	-1.964291.E-03	-2.741676.E-03
286	3.85	-1.943568.E-03	-2.739241.E-03
287	3.86	-1.922902.E-03	-2.735533.E-03
288	3.87	-1.902304.E-03	-2.730625.E-03
289	3.88	-1.881782.E-03	-2.724588.E-03
290	3.89	-1.861346.E-03	-2.717488.E-03
291	3.90	-1.841004.E-03	-2.709386.E-03
292	3.91	-1.820762.E-03	-2.700344.E-03
293	3.92	-1.800627.E-03	-2.690418.E-03
294	3.93	-1.780607.E-03	-2.679663.E-03
295	3.94	-1.760708.E-03	-2.668130.E-03
296	3.95	-1.740934.E-03	-2.655869.E-03
297	3.96	-1.721291.E-03	-2.642926.E-03
298	3.97	-1.701783.E-03	-2.629347.E-03
299	3.98	-1.682416.E-03	-2.615173.E-03
300	3.99	-1.663193.E-03	-2.600445.E-03
301	4.00	-1.644117.E-03	-2.585203.E-03
302	4.01	-1.625193.E-03	-2.569481.E-03
303	4.02	-1.606422.E-03	-2.553315.E-03
304	4.03	-1.587809.E-03	-2.536739.E-03
305	4.04	-1.569355.E-03	-2.519783.E-03
306	4.05	-1.551063.E-03	-2.502478.E-03
307	4.06	-1.532934.E-03	-2.484852.E-03
308	4.07	-1.514971.E-03	-2.466932.E-03
309	4.08	-1.497175.E-03	-2.448744.E-03
310	4.09	-1.479547.E-03	-2.430312.E-03
311	4.10	-1.462089.E-03	-2.411659.E-03
312	4.11	-1.444802.E-03	-2.392808.E-03
313	4.12	-1.427685.E-03	-2.373780.E-03
314	4.13	-1.410741.E-03	-2.354593.E-03
315	4.14	-1.393969.E-03	-2.335268.E-03
316	4.15	-1.377371.E-03	-2.315822.E-03
317	4.16	-1.360945.E-03	-2.296272.E-03
318	4.17	-1.344692.E-03	-2.276633.E-03
319	4.18	-1.328613.E-03	-2.256922.E-03
320	4.19	-1.312707.E-03	-2.237153.E-03
321	4.20	-1.296973.E-03	-2.217339.E-03
322	4.21	-1.281412.E-03	-2.197493.E-03
323	4.22	-1.266023.E-03	-2.177628.E-03
324	4.23	-1.250805.E-03	-2.157754.E-03
325	4.24	-1.235758.E-03	-2.137884.E-03
326	4.25	-1.220882.E-03	-2.118027.E-03
327	4.26	-1.206175.E-03	-2.098193.E-03
328	4.27	-1.191636.E-03	-2.078392.E-03
329	4.28	-1.177265.E-03	-2.058631.E-03
330	4.29	-1.163061.E-03	-2.038920.E-03
331	4.30	-1.149023.E-03	-2.019265.E-03
332	4.31	-1.135150.E-03	-1.999675.E-03
333	4.32	-1.121440.E-03	-1.980156.E-03
334	4.33	-1.107893.E-03	-1.960714.E-03
335	4.34	-1.094507.E-03	-1.941355.E-03
336	4.35	-1.081282.E-03	-1.922086.E-03
337	4.36	-1.068215.E-03	-1.902911.E-03
338	4.37	-1.055306.E-03	-1.883835.E-03
339	4.38	-1.042553.E-03	-1.864863.E-03
340	4.39	-1.029956.E-03	-1.845999.E-03
341	4.40	-1.017512.E-03	-1.827248.E-03
342	4.41	-1.005220.E-03	-1.808612.E-03
343	4.42	-9.930797.E-04	-1.790096.E-03
344	4.43	-9.810886.E-04	-1.771703.E-03
345	4.44	-9.692456.E-04	-1.753435.E-03
346	4.45	-9.575493.E-04	-1.735295.E-03
347	4.46	-9.459983.E-04	-1.717287.E-03
348	4.47	-9.345911.E-04	-1.699411.E-03
349	4.48	-9.233262.E-04	-1.681671.E-03
350	4.49	-9.122022.E-04	-1.664068.E-03
351	4.50	-9.012177.E-04	-1.646604.E-03
352	4.51	-8.903711.E-04	-1.629281.E-03
353	4.52	-8.796609.E-04	-1.612100.E-03
354	4.53	-8.690858.E-04	-1.595062.E-03
355	4.54	-8.586441.E-04	-1.578168.E-03
356	4.55	-8.483345.E-04	-1.561420.E-03
357	4.56	-8.381555.E-04	-1.544818.E-03
358	4.57	-8.281055.E-04	-1.528363.E-03
359	4.58	-8.181832.E-04	-1.512055.E-03
360	4.59	-8.083871.E-04	-1.495895.E-03
361	4.60	-7.987156.E-04	-1.479884.E-03
362	4.61	-7.891674.E-04	-1.464021.E-03
363	4.62	-7.797410.E-04	-1.448308.E-03
364	4.63	-7.704349.E-04	-1.432743.E-03
365	4.64	-7.612478.E-04	-1.417327.E-03
366	4.65	-7.521782.E-04	-1.402060.E-03
367	4.66	-7.432246.E-04	-1.386942.E-03
368	4.67	-7.343857.E-04	-1.371972.E-03
369	4.68	-7.256601.E-04	-1.357151.E-03
370	4.69	-7.170464.E-04	-1.342477.E-03
371	4.70	-7.085431.E-04	-1.327951.E-03
372	4.71	-7.001490.E-04	-1.313572.E-03
373	4.72	-6.918627.E-04	-1.299340.E-03
374	4.73	-6.836828.E-04	-1.285253.E-03
375	4.74	-6.756080.E-04	-1.271312.E-03
376	4.75	-6.676369.E-04	-1.257515.E-03
377	4.76	-6.597683.E-04	-1.243862.E-03
378	4.77	-6.520009.E-04	-1.230352.E-03
379	4.78	-6.443333.E-04	-1.216985.E-03
380	4.79	-6.367642.E-04	-1.203759.E-03
381	4.80	-6.292925.E-04	-1.190674.E-03
382	4.81	-6.219169.E-04	-1.177729.E-03
383	4.82	-6.146360.E-04	-1.164923.E-03
384	4.83	-6.074488.E-04	-1.152255.E-03
385	4.84	-6.003539.E-04	-1.139724.E-03
386	4.85	-5.933503.E-04	-1.127329.E-03
387	4.86	-5.864366.E-04	-1.115068.E-03
388	4.87	-5.796117.E-04	-1.102942.E-03
389	4.88	-5.728744.E-04	-1.090949.E-03
390	4.89	-5.662236.E-04	-1.079088.E-03
391	4.90	-5.596582.E-04	-1.067358.E-03
392	4.91	-5.531770.E-04	-1.055758.E-03
393	4.92	-5.467789.E-04	-1.044286.E-03
394	4.93	-5.404628.E-04	-1.032942.E-03
395	4.94	-5.342277.E-04	-1.021725.E-03
396	4.95	-5.280724.E-04	-1.010633.E-03
397	4.96	-5.219959.E-04	-9.996653.E-04
398	4.97	-5.159971.E-04	-9.888207.E-04
399	4.98	-5.100750.E-04	-9.780982.E-04
400	4.99	-5.042286.E-04	-9.674966.E-04
401	5.00	-4.984569.E-04	-9.570147.E-04
402	5.01	-4.927588.E-04	-9.466514.E-04
403	5.02	-4.871334.E-04	-9.364056.E-04
404	5.03	-4.815797.E-04	-9.262761.E-04
405	5.04	-4.760968.E-04	-9.162618.E-04
406	5.05	-4.706836.E-04	-9.063615.E-04
407	5.06	-4.653393.E-04	-8.965741.E-04
408	5.07	-4.600630.E-04	-8.868984.E-04
409	5.08	-4.548536.E-04	-8.773334.E-04
410	5.09	-4.497103.E-04	-8.678777.E-04
411	5.10	-4.446323.E-04	-8.585304.E-04
412	5.11	-4.396186.E-04	-8.492903.E-04
413	5.12	-4.346684.E-04	-8.401563.E-04
414	5.13	-4.297808.E-04	-8.311272.E-04
415	5.14	-4.249550.E-04	-8.222019.E-04
416	5.15	-4.201901.E-04	-8.133793.E-04
417	5.16	-4.154853.E-04	-8.046583.E-04
418	5.17	-4.108398.E-04	-7.960379.E-04
419	5.18	-4.062529.E-04	-7.875168.E-04
420	5.19	-4.017236.E-04	-7.790940.E-04
421	5.20	-3.972513.E-04	-7.707684.E-04
422	5.21	-3.928351.E-04	-7.625390.E-04
423	5.22	-3.884743.E-04	-7.544047.E-04
424	5.23	-3.841682.E-04	-7.463644.E-04
425	5.24	-3.799160.E-04	-7.384170.E-04
426	5.25	-3.757170.E-04	-7.305615.E-04
427	5.26	-3.715704.E-04	-7.227970.E-04
428	5.27	-3.674756.E-04	-7.151222.E-04
429	5.28	-3.634319.E-04	-7.075363.E-04
430	5.29	-3.594385.E-04	-7.000382.E-04
431	5.30	-3.554948.E-04	-6.926268.E-04
432	5.31	-3.516001.E-04	-6.853013.E-04
433	5.32	-3.477538.E-04	-6.780606.E-04
434	5.33	-3.439552.E-04	-6.709037.E-04
435	5.34	-3.402036.E-04	-6.638296.E-04
436	5.35	-3.364985.E-04	-6.568374.E-04
437	5.36	-3.328392.E-04	-6.499262.E-04
438	5.37	-3.292250.E-04	-6.430949.E-04
439	5.38	-3.256554.E-04	-6.363427.E-04
440	5.39	-3.221298.E-04	-6.296686.E-04
441	5.40	-3.186476.E-04	-6.230717.E-04
442	5.41	-3.152082.E-04	-6.165511.E-04
443	5.42	-3.118110.E-04	-6.101058.E-04
444	5.43	-3.084554.E-04	-6.037351.E-04
445	5.44	-3.051409.E-04	-5.974379.E-04
446	5.45	-3.018670.E-04	-5.912135.E-04
447	5.46	-2.986331.E-04	-5.850610.E-04
448	5.47	-2.954387.E-04	-5.789794.E-04
449	5.48	-2.922832.E-04	-5.729680.E-04
450	5.49	-2.891661.E-04	-5.670260.E-04
451	5.50	-2.860869.E-04	-5.611524.E-04
452	5.51	-2.830451.E-04	-5.553465.E-04
453	5.52	-2.800401.E-04	-5.496075.E-04
454	5.53	-2.770716.E-04	-5.439345.E-04
455	5.54	-2.741390.E-04	-5.383267.E-04
456	5.55	-2.712419.E-04	-5.327835.E-04
457	5.56	-2.683797.E-04	-5.273039.E-04
458	5.57	-2.655520.E-04	-5.218873.E-04
459	5.58	-2.627583.E-04	-5.165328.E-04
460	5.59	-2.599983.E-04	-5.112397.E-04
461	5.60	-2.572713.E-04	-5.060073.E-04
462	5.61	-2.545771.E-04	-5.008349.E-04
463	5.62	-2.519152.E-04	-4.957216.E-04
464	5.63	-2.492850.E-04	-4.906669.E-04
465	5.64	-2.466863.E-04	-4.856699.E-04
466	5.65	-2.441187.E-04	-4.807300.E-04
467	5.66	-2.415816.E-04	-4.758466.E-04
468	5.67	-2.390747.E-04	-4.710188.E-04
469	5.68	-2.365975.E-04	-4.662460.E-04
470	5.69	-2.341498.E-04	-4.615276.E-04
471	5.70	-2.317311.E-04	-4.568629.E-04
472	5.71	-2.293410.E-04	-4.522513.E-04
473	5.72	-2.269792.E-04	-4.476920.E-04
474	5.73	-2.246453.E-04	-4.431845.E-04
475	5.74	-2.223389.E-04	-4.387281.E-04
476	5.75	-2.200596.E-04	-4.343223.E-04
477	5.76	-2.178072.E-04	-4.299663.E-04
478	5.77	-2.155812.E-04	-4.256597.E-04
479	5.78	-2.133813.E-04	-4.214017.E-04
480	5.79	-2.112071.E-04	-4.171918.E-04
481	5.80	-2.090584.E-04	-4.130294.E-04
482	5.81	-2.069348.E-04	-4.089140.E-04
483	5.82	-2.048360.E-04	-4.048449.E-04
484	5.83	-2.027616.E-04	-4.008216.E-04
485	5.84	-2.007113.E-04	-3.968435.E-04
486	5.85	-1.986849.E-04	-3.929101.E-04
487	5.86	-1.966820.E-04	-3.890209.E-04
488	5.87	-1.947023.E-04	-3.851753.E-04
489	5.88	-1.927455.E-04	-3.813727.E-04
490	5.89	-1.908113.E-04	-3.776127.E-04
491	5.90	-1.888994.E-04	-3.738948.E-04
492	5.91	-1.870095.E-04	-3.702183.E-04
493	5.92	-1.851414.E-04	-3.665829.E-04
494	5.93	-1.832948.E-04	-3.629880.E-04
495	5.94	-1.814694.E-04	-3.594331.E-04
496	5.95	-1.796648.E-04	-3.559178.E-04
497	5.96	-1.778810.E-04	-3.524415.E-04
498	5.97	-1.761175.E-04	-3.490038.E-04
499	5.98	-1.743741.E-04	-3.456042.E-04
500	5.99	-1.726506.E-04	-3.422423.E-04
501	6.00	-1.709468.E-04	-3.389176.E-04
502	6.01	-1.692623.E-04	-3.356297.E-04
503	6.02	-1.675969.E-04	-3.323780.E-04
504	6.03	-1.659504.E-04	-3.291622.E-04
505	6.04	-1.643225.E-04	-3.259819.E-04
506	6.05	-1.627131.E-04	-3.228366.E-04
507	6.06	-1.611218.E-04	-3.197258.E-04
508	6.07	-1.595484.E-04	-3.166492.E-04
509	6.08	-1.579927.E-04	-3.136063.E-04
510	6.09	-1.564546.E-04	-3.105969.E-04
511	6.10	-1.549337.E-04	-3.076203.E-04
512	6.11	-1.534298.E-04	-3.046763.E-04
513	6.12	-1.519428.E-04	-3.017644.E-04
514	6.13	-1.504724.E-04	-2.988844.E-04
515	6.14	-1.490185.E-04	-2.960357.E-04
516	6.15	-1.475807.E-04	-2.932180.E-04
517	6.16	-1.461589.E-04	-2.904309.E-04
518	6.17	-1.447530.E-04	-2.876741.E-04
519	6.18	-1.433626.E-04	-2.849473.E-04
520	6.19	-1.419877.E-04	-2.822499.E-04
521	6.20	-1.406280.E-04	-2.795818.E-04
522	6.21	-1.392833.E-04	-2.769425.E-04
523	6.22	-1.379535.E-04	-2.743317.E-04
524	6.23	-1.366383.E-04	-2.717491.E-04
525	6.24	-1.353376.E-04	-2.691943.E-04
526	6.25	-1.340512.E-04	-2.666670.E-04
527	6.26	-1.327789.E-04	-2.641669.E-04
528	6.27	-1.315206.E-04	-2.616936.E-04
529	6.28	-1.302761.E-04	-2.592468.E-04
530	6.29	-1.290451.E-04	-2.568262.E-04
531	6.30	-1.278276.E-04	-2.544315.E-04
532	6.31	-1.266234.E-04	-2.520625.E-04
533	6.32	-1.254323.E-04	-2.497187.E-04
534	6.33	-1.242541.E-04	-2.473998.E-04
535	6.34	-1.230887.E-04	-2.451057.E-04
536	6.35	-1.219360.E-04	-2.428360.E-04
537	6.36	-1.207957.E-04	-2.405904.E-04
538	6.37	-1.196678.E-04	-2.383686.E-04
539	6.38	-1.185520.E-04	-2.361703.E-04
540	6.39	-1.174483.E-04	-2.339953.E-04
541	6.40	-1.163565.E-04	-2.318433.E-04
542	6.41	-1.152764.E-04	-2.297141.E-04
543	6.42	-1.142079.E-04	-2.276072.E-04
544	6.43	-1.131508.E-04	-2.255226.E-04
545	6.44	-1.121051.E-04	-2.234599.E-04
546	6.45	-1.110705.E-04	-2.214189.E-04
547	6.46	-1.100470.E-04	-2.193993.E-04
548	6.47	-1.090344.E-04	-2.174008.E-04
549	6.48	-1.080326.E-04	-2.154233.E-04
550	6.49	-1.070415.E-04	-2.134665.E-04
551	6.50	-1.060608.E-04	-2.115301.E-04
552	6.51	-1.050906.E-04	-2.096138.E-04
553	6.52	-1.041306.E-04	-2.077176.E-04
554	6.53	-1.031808.E-04	-2.058411.E-04
555	6.54	-1.022411.E-04	-2.039841.E-04
556	6.55	-1.013112.E-04	-2.021463.E-04
557	6.56	-1.003911.E-04	-2.003276.E-04
558	6.57	-9.948071.E-05	-1.985278.E-04
559	6.58	-9.857987.E-05	-1.967465.E-04
560	6.59	-9.768848.E-05	-1.949837.E-04
561	6.60	-9.680642.E-05	-1.932390.E-04
562	6.61	-9.593358.E-05	-1.915123.E-04
563	6.62	-9.506986.E-05	-1.898034.E-04
564	6.63	-9.421515.E-05	-1.881120.E-04
565	6.64	-9.336934.E-05	-1.864380.E-04
566	6.65	-9.253233.E-05	-1.847812.E-04
567	6.66	-9.170401.E-05	-1.831413.E-04
568	6.67	-9.088428.E-05	-1.815182.E-04
569	6.68	-9.007304.E-05	-1.799116.E-04
570	6.69	-8.927019.E-05	-1.783215.E-04
571	6.70	-8.847564.E-05	-1.767476.E-04
572	6.71	-8.768928.E-05	-1.751896.E-04
573	6.72	-8.691102.E-05	-1.736475.E-04
574	6.73	-8.614077.E-05	-1.721211.E-04
575	6.74	-8.537843.E-05	-1.706101.E-04
576	6.75	-8.462391.E-05	-1.691144.E-04
577	6.76	-8.387712.E-05	-1.676339.E-04
578	6.77	-8.313797.E-05	-1.661683.E-04
579	6.78	-8.240637.E-05	-1.647174.E-04
580	6.79	-8.168223.E-05	-1.632812.E-04
581	6.80	-8.096548.E-05	-1.618595.E-04
582	6.81	-8.025601.E-05	-1.604520.E-04
583	6.82	-7.955376.E-05	-1.590587.E-04
584	6.83	-7.885863.E-05	-1.576793.E-04
585	6.84	-7.817055.E-05	-1.563137.E-04
586	6.85	-7.748942.E-05	-1.549618.E-04
587	6.86	-7.681519.E-05	-1.536234.E-04
588	6.87	-7.614775.E-05	-1.522983.E-04
589	6.88	-7.548705.E-05	-1.509865.E-04
590	6.89	-7.483299.E-05	-1.496876.E-04
591	6.90	-7.418551.E-05	-1.484017.E-04
592	6.91	-7.354452.E-05	-1.471286.E-04
593	6.92	-7.290996.E-05	-1.458680.E-04
594	6.93	-7.228176.E-05	-1.446200.E-04
595	6.94	-7.165983.E-05	-1.433843.E-04
596	6.95	-7.104411.E-05	-1.421607.E-04
597	6.96	-7.043453.E-05	-1.409493.E-04
598	6.97	-6.983103.E-05	-1.397498.E-04
599	6.98	-6.923352.E-05	-1.385620.E-04
600	6.99	-6.864194.E-05	-1.373860.E-04
601	7.00	-6.805623.E-05	-1.362215.E-04
602	7.01	-6.747632.E-05	-1.350683.E-04
603	7.02	-6.690215.E-05	-1.339265.E-04
604	7.03	-6.633365.E-05	-1.327959.E-04
605	7.04	-6.577075.E-05	-1.316762.E-04
606	7.05	-6.521340.E-05	-1.305675.E-04
607	7.06	-6.466153.E-05	-1.294696.E-04
608	7.07	-6.411509.E-05	-1.283824.E-04
609	7.08	-6.357400.E-05	-1.273057.E-04
610	7.09	-6.303822.E-05	-1.262395.E-04
611	7.10	-6.250767.E-05	-1.251836.E-04
612	7.11	-6.198232.E-05	-1.241379.E-04
613	7.12	-6.146209.E-05	-1.231023.E-04
614	7.13	-6.094693.E-05	-1.220768.E-04
615	7.14	-6.043678.E-05	-1.210611.E-04
616	7.15	-5.993159.E-05	-1.200552.E-04
617	7.16	-5.943130.E-05	-1.190589.E-04
618	7.17	-5.893587.E-05	-1.180723.E-04
619	7.18	-5.844523.E-05	-1.170951.E-04
620	7.19	-5.795934.E-05	-1.161272.E-04
621	7.20	-5.747813.E-05	-1.151686.E-04
622	7.21	-5.700157.E-05	-1.142192.E-04
623	7.22	-5.652959.E-05	-1.132789.E-04
624	7.23	-5.606216.E-05	-1.123475.E-04
625	7.24	-5.559921.E-05	-1.114249.E-04
626	7.25	-5.514071.E-05	-1.105112.E-04
627	7.26	-5.468660.E-05	-1.096061.E-04
628	7.27	-5.423683.E-05	-1.087096.E-04
629	7.28	-5.379136.E-05	-1.078216.E-04
630	7.29	-5.335014.E-05	-1.069420.E-04
631	7.30	-5.291312.E-05	-1.060707.E-04
632	7.31	-5.248027.E-05	-1.052077.E-04
633	7.32	-5.205153.E-05	-1.043527.E-04
634	7.33	-5.162685.E-05	-1.035059.E-04
635	7.34	-5.120621.E-05	-1.026669.E-04
636	7.35	-5.078954.E-05	-1.018359.E-04
637	7.36	-5.037682.E-05	-1.010127.E-04
638	7.37	-4.996799.E-05	-1.001971.E-04
639	7.38	-4.956302.E-05	-9.938923.E-05
640	7.39	-4.916186.E-05	-9.858888.E-05
641	7.40	-4.876447.E-05	-9.779600.E-05
642	7.41	-4.837082.E-05	-9.701051.E-05
643	7.42	-4.798086.E-05	-9.623233.E-05
644	7.43	-4.759456.E-05	-9.546139.E-05
645	7.44	-4.721187.E-05	-9.469760.E-05
646	7.45	-4.683275.E-05	-9.394090.E-05
647	7.46	-4.645718.E-05	-9.319122.E-05
648	7.47	-4.608510.E-05	-9.244846.E-05
649	7.48	-4.571649.E-05	-9.171258.E-05
650	7.49	-4.535131.E-05	-9.098348.E-05
651	7.50	-4.498951.E-05	-9.026110.E-05
652	7.51	-4.463108.E-05	-8.954538.E-05
653	7.52	-4.427596.E-05	-8.883624.E-05
654	7.53	-4.392412.E-05	-8.813361.E-05
655	7.54	-4.357554.E-05	-8.743742.E-05
656	7.55	-4.323017.E-05	-8.674761.E-05
657	7.56	-4.288799.E-05	-8.606412.E-05
658	7.57	-4.254895.E-05	-8.538687.E-05
659	7.58	-4.221303.E-05	-8.471580.E-05
660	7.59	-4.188020.E-05	-8.405086.E-05
661	7.60	-4.155041.E-05	-8.339196.E-05
662	7.61	-4.122364.E-05	-8.273906.E-05
663	7.62	-4.089987.E-05	-8.209209.E-05
664	7.63	-4.057905.E-05	-8.145099.E-05
665	7.64	-4.026115.E-05	-8.081570.E-05
666	7.65	-3.994615.E-05	-8.018615.E-05
667	7.66	-3.963402.E-05	-7.956230.E-05
668	7.67	-3.932472.E-05	-7.894408.E-05
669	7.68	-3.901823.E-05	-7.833143.E-05
670	7.69	-3.871452.E-05	-7.772431.E-05
671	7.70	-3.841356.E-05	-7.712264.E-05
672	7.71	-3.811531.E-05	-7.652638.E-05
673	7.72	-3.781976.E-05	-7.593546.E-05
674	7.73	-3.752688.E-05	-7.534985.E-05
675	7.74	-3.723663.E-05	-7.476948.E-05
676	7.75	-3.694900.E-05	-7.419429.E-05
677	7.76	-3.666395.E-05	-7.362424.E-05
678	7.77	-3.638145.E-05	-7.305928.E-05
679	7.78	-3.610149.E-05	-7.249935.E-05
680	7.79	-3.582404.E-05	-7.194440.E-05
681	7.80	-3.554906.E-05	-7.139438.E-05
682	7.81	-3.527654.E-05	-7.084924.E-05
683	7.82	-3.500645.E-05	-7.030894.E-05
684	7.83	-3.473877.E-05	-6.977342.E-05
685	7.84	-3.447346.E-05	-6.924264.E-05
686	7.85	-3.421052.E-05	-6.871654.E-05
687	7.86	-3.394990.E-05	-6.819509.E-05
688	7.87	-3.369160.E-05	-6.767823.E-05
689	7.88	-3.343558.E-05	-6.716592.E-05
690	7.89	-3.318182.E-05	-6.665812.E-05
691	7.90	-3.293031.E-05	-6.615477.E-05
692	7.91	-3.268101.E-05	-6.565584.E-05
693	7.92	-3.243391.E-05	-6.516127.E-05
694	7.93	-3.218899.E-05	-6.467104.E-05
695	7.94	-3.194621.E-05	-6.418509.E-05
696	7.95	-3.170557.E-05	-6.370338.E-05
697	7.96	-3.146703.E-05	-6.322586.E-05
698	7.97	-3.123058.E-05	-6.275251.E-05
699	7.98	-3.099620.E-05	-6.228327.E-05
700	7.99	-3.076387.E-05	-6.181811.E-05
701	8.00	-3.053356.E-05	-6.135699.E-05
702	8.01	-3.030526.E-05	-6.089986.E-05
703	8.02	-3.007894.E-05	-6.044669.E-05
704	8.03	-2.985460.E-05	-5.999743.E-05
705	8.04	-2.963219.E-05	-5.955206.E-05
706	8.05	-2.941172.E-05	-5.911052.E-05
707	8.06	-2.919316.E-05	-5.867279.E-05
708	8.07	-2.897648.E-05	-5.823883.E-05
709	8.08	-2.876168.E-05	-5.780859.E-05
710	8.09	-2.854873.E-05	-5.738205.E-05
711	8.10	-2.833761.E-05	-5.695917.E-05
712	8.11	-2.812832.E-05	-5.653991.E-05
713	8.12	-2.792082.E-05	-5.612423.E-05
714	8.13	-2.771510.E-05	-5.571210.E-05
715	8.14	-2.751114.E-05	-5.530350.E-05
716	8.15	-2.730894.E-05	-5.489837.E-05
717	8.16	-2.710846.E-05	-5.449669.E-05
718	8.17	-2.690969.E-05	-5.409843.E-05
719	8.18	-2.671263.E-05	-5.370355.E-05
720	8.19	-2.651724.E-05	-5.331203.E-05
721	8.20	-2.632351.E-05	-5.292382.E-05
722	8.21	-2.613143.E-05	-5.253889.E-05
723	8.22	-2.594099.E-05	-5.215722.E-05
724	8.23	-2.575215.E-05	-5.177877.E-05
725	8.24	-2.556492.E-05	-5.140352.E-05
726	8.25	-2.537928.E-05	-5.103142.E-05
727	8.26	-2.519520.E-05	-5.066246.E-05
728	8.27	-2.501267.E-05	-5.029660.E-05
729	8.28	-2.483169.E-05	-4.993381.E-05
730	8.29	-2.465223.E-05	-4.957406.E-05
731	8.30	-2.447428.E-05	-4.921732.E-05
732	8.31	-2.429782.E-05	-4.886357.E-05
733	8.32	-2.412285.E-05	-4.851278.E-05
734	8.33	-2.394934.E-05	-4.816491.E-05
735	8.34	-2.377729.E-05	-4.781994.E-05
736	8.35	-2.360667.E-05	-4.747785.E-05
737	8.36	-2.343748.E-05	-4.713860.E-05
738	8.37	-2.326970.E-05	-4.680217.E-05
739	8.38	-2.310332.E-05	-4.646853.E-05
740	8.39	-2.293832.E-05	-4.613766.E-05
741	8.40	-2.277470.E-05	-4.580953.E-05
742	8.41	-2.261243.E-05	-4.548411.E-05
743	8.42	-2.245151.E-05	-4.516138.E-05
744	8.43	-2.229193.E-05	-4.484131.E-05
745	8.44	-2.213366.E-05	-4.452388.E-05
746	8.45	-2.197670.E-05	-4.420906.E-05
747	8.46	-2.182104.E-05	-4.389683.E-05
748	8.47	-2.166666.E-05	-4.358717.E-05
749	8.48	-2.151356.E-05	-4.328004.E-05
750	8.49	-2.136171.E-05	-4.297544.E-05
751	8.50	-2.121111.E-05	-4.267332.E-05
752	8.51	-2.106175.E-05	-4.237368.E-05
753	8.52	-2.091361.E-05	-4.207648.E-05
754	8.53	-2.076669.E-05	-4.178171.E-05
755	8.54	-2.062096.E-05	-4.148934.E-05
756	8.55	-2.047643.E-05	-4.119935.E-05
757	8.56	-2.033308.E-05	-4.091172.E-05
758	8.57	-2.019089.E-05	-4.062642.E-05
759	8.58	-2.004987.E-05	-4.034344.E-05
760	8.59	-1.990999.E-05	-4.006275.E-05
761	8.60	-1.977124.E-05	-3.978433.E-05
762	8.61	-1.963362.E-05	-3.950816.E-05
763	8.62	-1.949712.E-05	-3.923422.E-05
764	8.63	-1.936172.E-05	-3.896250.E-05
765	8.64	-1.922742.E-05	-3.869296.E-05
766	8.65	-1.909420.E-05	-3.842559.E-05
767	8.66	-1.896206.E-05	-3.816037.E-05
768	8.67	-1.883098.E-05	-3.789728.E-05
769	8.68	-1.870096.E-05	-3.763630.E-05
770	8.69	-1.857198.E-05	-3.737741.E-05
771	8.70	-1.844404.E-05	-3.712059.E-05
772	8.71	-1.831713.E-05	-3.686582.E-05
773	8.72	-1.819123.E-05	-3.661309.E-05
774	8.73	-1.806634.E-05	-3.636238.E-05
775	8.74	-1.794245.E-05	-3.611366.E-05
776	8.75	-1.781954.E-05	-3.586692.E-05
777	8.76	-1.769762.E-05	-3.562215.E-05
778	8.77	-1.757667.E-05	-3.537932.E-05
779	8.78	-1.745668.E-05	-3.513841.E-05
780	8.79	-1.733765.E-05	-3.489941.E-05
781	8.80	-1.721956.E-05	-3.466230.E-05
782	8.81	-1.710241.E-05	-3.442707.E-05
783	8.82	-1.698618.E-05	-3.419370.E-05
784	8.83	-1.687088.E-05	-3.396216.E-05
785	8.84	-1.675649.E-05	-3.373245.E-05
786	8.85	-1.664300.E-05	-3.350455.E-05
787	8.86	-1.653040.E-05	-3.327844.E-05
788	8.87	-1.641870.E-05	-3.305411.E-05
789	8.88	-1.630787.E-05	-3.283154.E-05
790	8.89	-1.619791.E-05	-3.261071.E-05
791	8.90	-1.608882.E-05	-3.239161.E-05
792	8.91	-1.598058.E-05	-3.217422.E-05
793	8.92	-1.587320.E-05	-3.195853.E-05
794	8.93	-1.576665.E-05	-3.174452.E-05
795	8.94	-1.566093.E-05	-3.153218.E-05
796	8.95	-1.555604.E-05	-3.132149.E-05
797	8.96	-1.545197.E-05	-3.111244.E-05
798	8.97	-1.534871.E-05	-3.090502.E-05
799	8.98	-1.524625.E-05	-3.069921.E-05
800	8.99	-1.514459.E-05	-3.049499.E-05
801	9.00	-1.504372.E-05	-3.029235.E-05
802	9.01	-1.494363.E-05	-3.009128.E-05
803	9.02	-1.484432.E-05	-2.989176.E-05
804	9.03	-1.474578.E-05	-2.969378.E-05
805	9.04	-1.464800.E-05	-2.949733.E-05
806	9.05	-1.455097.E-05	-2.930239.E-05
807	9.06	-1.445469.E-05	-2.910895.E-05
808	9.07	-1.435916.E-05	-2.891700.E-05
809	9.08	-1.426436.E-05	-2.872652.E-05
810	9.09	-1.417028.E-05	-2.853750.E-05
811	9.10	-1.407694.E-05	-2.834993.E-05
812	9.11	-1.398430.E-05	-2.816379.E-05
813	9.12	-1.389238.E-05	-2.797908.E-05
814	9.13	-1.380116.E-05	-2.779577.E-05
815	9.14	-1.371064.E-05	-2.761387.E-05
816	9.15	-1.362081.E-05	-2.743335.E-05
817	9.16	-1.353167.E-05	-2.725420.E-05
818	9.17	-1.344321.E-05	-2.707642.E-05
819	9.18	-1.335541.E-05	-2.689998.E-05
820	9.19	-1.326829.E-05	-2.672489.E-05
821	9.20	-1.318183.E-05	-2.655112.E-05
822	9.21	-1.309603.E-05	-2.637866.E-05
823	9.22	-1.301088.E-05	-2.620751.E-05
824	9.23	-1.292637.E-05	-2.603766.E-05
825	9.24	-1.284250.E-05	-2.586908.E-05
826	9.25	-1.275926.E-05	-2.570178.E-05
827	9.26	-1.267666.E-05	-2.553573.E-05
828	9.27	-1.259467.E-05	-2.537094.E-05
829	9.28	-1.251331.E-05	-2.520738.E-05
830	9.29	-1.243255.E-05	-2.504505.E-05
831	9.30	-1.235241.E-05	-2.488393.E-05
832	9.31	-1.227286.E-05	-2.472403.E-05
833	9.32	-1.219392.E-05	-2.456532.E-05
834	9.33	-1.211556.E-05	-2.440779.E-05
835	9.34	-1.203779.E-05	-2.425145.E-05
836	9.35	-1.196060.E-05	-2.409626.E-05
837	9.36	-1.188399.E-05	-2.394224.E-05
838	9.37	-1.180795.E-05	-2.378936.E-05
839	9.38	-1.173248.E-05	-2.363762.E-05
840	9.39	-1.165757.E-05	-2.348700.E-05
841	9.40	-1.158321.E-05	-2.333750.E-05
842	9.41	-1.150941.E-05	-2.318911.E-05
843	9.42	-1.143616.E-05	-2.304182.E-05
844	9.43	-1.136345.E-05	-2.289562.E-05
845	9.44	-1.129128.E-05	-2.275050.E-05
846	9.45	-1.121964.E-05	-2.260645.E-05
847	9.46	-1.114853.E-05	-2.246346.E-05
848	9.47	-1.107795.E-05	-2.232152.E-05
849	9.48	-1.100789.E-05	-2.218063.E-05
850	9.49	-1.093834.E-05	-2.204077.E-05
851	9.50	-1.086931.E-05	-2.190194.E-05
852	9.51	-1.080078.E-05	-2.176413.E-05
853	9.52	-1.073276.E-05	-2.162733.E-05
854	9.53	-1.066524.E-05	-2.149153.E-05
855	9.54	-1.059821.E-05	-2.135673.E-05
856	9.55	-1.053167.E-05	-2.122290.E-05
857	9.56	-1.046562.E-05	-2.109006.E-05
858	9.57	-1.040005.E-05	-2.095818.E-05
859	9.58	-1.033496.E-05	-2.082727.E-05
860	9.59	-1.027035.E-05	-2.069730.E-05
861	9.60	-1.020620.E-05	-2.056828.E-05
862	9.61	-1.014252.E-05	-2.044020.E-05
863	9.62	-1.007931.E-05	-2.031304.E-05
864	9.63	-1.001655.E-05	-2.018681.E-05
865	9.64	-9.954252.E-06	-2.006149.E-05
866	9.65	-9.892403.E-06	-1.993708.E-05
867	9.66	-9.831001.E-06	-1.981356.E-05
868	9.67	-9.770044.E-06	-1.969094.E-05
869	9.68	-9.709527.E-06	-1.956920.E-05
870	9.69	-9.649447.E-06	-1.944833.E-05
871	9.70	-9.589800.E-06	-1.932834.E-05
872	9.71	-9.530583.E-06	-1.920921.E-05
873	9.72	-9.471792.E-06	-1.909093.E-05
874	9.73	-9.413423.E-06	-1.897350.E-05
875	9.74	-9.355474.E-06	-1.885691.E-05
876	9.75	-9.297940.E-06	-1.874116.E-05
877	9.76	-9.240819.E-06	-1.862624.E-05
878	9.77	-9.184106.E-06	-1.851213.E-05
879	9.78	-9.127799.E-06	-1.839884.E-05
880	9.79	-9.071894.E-06	-1.828636.E-05
881	9.80	-9.016388.E-06	-1.817468.E-05
882	9.81	-8.961278.E-06	-1.806379.E-05
883	9.82	-8.906561.E-06	-1.795369.E-05
884	9.83	-8.852233.E-06	-1.784437.E-05
885	9.84	-8.798290.E-06	-1.773583.E-05
886	9.85	-8.744731.E-06	-1.762806.E-05
887	9.86	-8.691552.E-06	-1.752105.E-05
888	9.87	-8.638750.E-06	-1.741479.E-05
889	9.88	-8.586322.E-06	-1.730929.E-05
890	9.89	-8.534264.E-06	-1.720453.E-05
891	9.90	-8.482574.E-06	-1.710051.E-05
892	9.91	-8.431249.E-06	-1.699722.E-05
893	9.92	-8.380286.E-06	-1.689466.E-05
894	9.93	-8.329682.E-06	-1.679282.E-05
895	9.94	-8.279433.E-06	-1.669169.E-05
896	9.95	-8.229538.E-06	-1.659128.E-05
897	9.96	-8.179994.E-06	-1.649156.E-05
898	9.97	-8.130797.E-06	-1.639255.E-05
899	9.98	-8.081945.E-06	-1.629423.E-05
900	9.99	-8.033435.E-06	-1.619659.E-05
901	10.00	-7.985264.E-06	-1.609964.E-05
902	10.01	-7.937430.E-06	-1.600336.E-05
903	10.02	-7.889930.E-06	-1.590776.E-05
904	10.03	-7.842761.E-06	-1.581281.E-05
905	10.04	-7.795920.E-06	-1.571853.E-05
906	10.05	-7.749406.E-06	-1.562491.E-05
907	10.06	-7.703215.E-06	-1.553193.E-05
908	10.07	-7.657345.E-06	-1.543960.E-05
909	10.08	-7.611793.E-06	-1.534790.E-05
910	10.09	-7.566557.E-06	-1.525685.E-05
911	10.10	-7.521634.E-06	-1.516642.E-05
912	10.11	-7.477023.E-06	-1.507661.E-05
913	10.12	-7.432719.E-06	-1.498743.E-05
914	10.13	-7.388721.E-06	-1.489886.E-05
915	10.14	-7.345027.E-06	-1.481090.E-05
916	10.15	-7.301634.E-06	-1.472354.E-05
917	10.16	-7.258540.E-06	-1.463678.E-05
918	10.17	-7.215742.E-06	-1.455062.E-05
919	10.18	-7.173239.E-06	-1.446505.E-05
920	10.19	-7.131027.E-06	-1.438007.E-05
921	10.20	-7.089104.E-06	-1.429567.E-05
922	10.21	-7.047469.E-06	-1.421184.E-05
923	10.22	-7.006119.E-06	-1.412859.E-05
924	10.23	-6.965051.E-06	-1.404591.E-05
925	10.24	-6.924264.E-06	-1.396379.E-05
926	10.25	-6.883756.E-06	-1.388223.E-05
927	10.26	-6.843523.E-06	-1.380122.E-05
928	10.27	-6.803565.E-06	-1.372077.E-05
929	10.28	-6.763879.E-06	-1.364086.E-05
930	10.29	-6.724462.E-06	-1.356149.E-05
931	10.30	-6.685313.E-06	-1.348267.E-05
932	10.31	-6.646430.E-06	-1.340437.E-05
933	10.32	-6.607810.E-06	-1.332661.E-05
934	10.33	-6.569452.E-06	-1.324937.E-05
935	10.34	-6.531353.E-06	-1.317265.E-05
936	10.35	-6.493512.E-06	-1.309645.E-05
937	10.36	-6.455926.E-06	-1.302076.E-05
938	10.37	-6.418594.E-06	-1.294559.E-05
939	10.38	-6.381513.E-06	-1.287092.E-05
940	10.39	-6.344682.E-06	-1.279675.E-05
941	10.40	-6.308099.E-06	-1.272307.E-05
942	10.41	-6.271762.E-06	-1.264990.E-05
943	10.42	-6.235669.E-06	-1.257721.E-05
944	10.43	-6.199817.E-06	-1.250501.E-05
945	10.44	-6.164206.E-06	-1.243329.E-05
946	10.45	-6.128834.E-06	-1.236206.E-05
947	10.46	-6.093698.E-06	-1.229129.E-05
948	10.47	-6.058797.E-06	-1.222100.E-05
949	10.48	-6.024128.E-06	-1.215118.E-05
950	10.49	-5.989691.E-06	-1.208182.E-05
951	10.50	-5.955483.E-06	-1.201293.E-05
952	10.51	-5.921503.E-06	-1.194449.E-05
953	10.52	-5.887749.E-06	-1.187650.E-05
954	10.53	-5.854220.E-06	-1.180897.E-05
955	10.54	-5.820913.E-06	-1.174188.E-05
956	10.55	-5.787826.E-06	-1.167524.E-05
957	10.56	-5.754959.E-06	-1.160904.E-05
958	10.57	-5.722309.E-06	-1.154328.E-05
959	10.58	-5.689876.E-06	-1.147795.E-05
960	10.59	-5.657656.E-06	-1.141305.E-05
961	10.60	-5.625649.E-06	-1.134858.E-05
962	10.61	-5.593854.E-06	-1.128453.E-05
963	10.62	-5.562267.E-06	-1.122091.E-05
964	10.63	-5.530889.E-06	-1.115770.E-05
965	10.64	-5.499717.E-06	-1.109491.E-05
966	10.65	-5.468750.E-06	-1.103252.E-05
967	10.66	-5.437985.E-06	-1.097055.E-05
968	10.67	-5.407423.E-06	-1.090898.E-05
969	10.68	-5.377061.E-06	-1.084782.E-05
970	10.69	-5.346897.E-06	-1.078706.E-05
971	10.70	-5.316931.E-06	-1.072669.E-05
972	10.71	-5.287161.E-06	-1.066671.E-05
973	10.72	-5.257584.E-06	-1.060713.E-05
974	10.73	-5.228201.E-06	-1.054793.E-05
975	10.74	-5.199009.E-06	-1.048912.E-05
976	10.75	-5.170007.E-06	-1.043070.E-05
977	10.76	-5.141194.E-06	-1.037265.E-05
978	10.77	-5.112567.E-06	-1.031497.E-05
979	10.78	-5.084127.E-06	-1.025767.E-05
980	10.79	-5.055871.E-06	-1.020075.E-05
981	10.80	-5.027798.E-06	-1.014418.E-05
982	10.81	-4.999906.E-06	-1.008799.E-05
983	10.82	-4.972195.E-06	-1.003216.E-05
984	10.83	-4.944663.E-06	-9.976686.E-06
985	10.84	-4.917309.E-06	-9.921571.E-06
986	10.85	-4.890131.E-06	-9.866812.E-06
987	10.86	-4.863128.E-06	-9.812404.E-06
988	10.87	-4.836299.E-06	-9.758346.E-06
989	10.88	-4.809643.E-06	-9.704635.E-06
990	10.89	-4.783158.E-06	-9.651269.E-06
991	10.90	-4.756842.E-06	-9.598244.E-06
992	10.91	-4.730696.E-06	-9.545559.E-06
993	10.92	-4.704717.E-06	-9.493211.E-06
994	10.93	-4.678904.E-06	-9.441198.E-06
995	10.94	-4.653257.E-06	-9.389517.E-06
996	10.95	-4.627773.E-06	-9.338165.E-06
997	10.96	-4.602452.E-06	-9.287141.E-06
998	10.97	-4.577292.E-06	-9.236441.E-06
999	10.98	-4.552293.E-06	-9.186064.E-06
1000	10.99	-4.527453.E-06	-9.136008.E-06
1001	11.00	-4.502771.E-06	-9.086269.E-06
1002	11.01	-4.478246.E-06	-9.036845.E-06
1003	11.02	-4.453876.E-06	-8.987735.E-06
1004	11.03	-4.429661.E-06	-8.938936.E-06
1005	11.04	-4.405600.E-06	-8.890446.E-06
1006	11.05	-4.381690.E-06	-8.842262.E-06
1007	11.06	-4.357932.E-06	-8.794383.E-06
1008	11.07	-4.334325.E-06	-8.746806.E-06
1009	11.08	-4.310866.E-06	-8.699528.E-06
1010	11.09	-4.287555.E-06	-8.652549.E-06
1011	11.10	-4.264392.E-06	-8.605865.E-06
1012	11.11	-4.241374.E-06	-8.559475.E-06
1013	11.12	-4.218501.E-06	-8.513376.E-06
1014	11.13	-4.195771.E-06	-8.467566.E-06
1015	11.14	-4.173185.E-06	-8.422044.E-06
1016	11.15	-4.150740.E-06	-8.376807.E-06
1017	11.16	-4.128436.E-06	-8.331853.E-06
1018	11.17	-4.106272.E-06	-8.287181.E-06
1019	11.18	-4.084246.E-06	-8.242787.E-06
1020	11.19	-4.062358.E-06	-8.198670.E-06
1021	11.20	-4.040607.E-06	-8.154829.E-06
1022	11.21	-4.018991.E-06	-8.111261.E-06
1023	11.22	-3.997511.E-06	-8.067964.E-06
1024	11.23	-3.976164.E-06	-8.024937.E-06
1025	11.24	-3.954950.E-06	-7.982177.E-06
1026	11.25	-3.933868.E-06	-7.939682.E-06
1027	11.26	-3.912917.E-06	-7.897452.E-06
1028	11.27	-3.892096.E-06	-7.855482.E-06
1029	11.28	-3.871404.E-06	-7.813773.E-06
1030	11.29	-3.850840.E-06	-7.772322.E-06
1031	11.30	-3.830404.E-06	-7.731128.E-06
1032	11.31	-3.810094.E-06	-7.690187.E-06
1033	11.32	-3.789910.E-06	-7.649500.E-06
1034	11.33	-3.769850.E-06	-7.609063.E-06
1035	11.34	-3.749914.E-06	-7.568875.E-06
1036	11.35	-3.730101.E-06	-7.528935.E-06
1037	11.36	-3.710410.E-06	-7.489240.E-06
1038	11.37	-3.690840.E-06	-7.449790.E-06
1039	11.38	-3.671391.E-06	-7.410581.E-06
1040	11.39	-3.652061.E-06	-7.371613.E-06
1041	11.40	-3.632850.E-06	-7.332884.E-06
1042	11.41	-3.613756.E-06	-7.294392.E-06
1043	11.42	-3.594779.E-06	-7.256136.E-06
1044	11.43	-3.575919.E-06	-7.218113.E-06
1045	11.44	-3.557174.E-06	-7.180322.E-06
1046	11.45	-3.538543.E-06	-7.142762.E-06
1047	11.46	-3.520027.E-06	-7.105432.E-06
1048	11.47	-3.501623.E-06	-7.068328.E-06
1049	11.48	-3.483331.E-06	-7.031450.E-06
1050	11.49	-3.465151.E-06	-6.994797.E-06
1051	11.50	-3.447081.E-06	-6.958366.E-06
1052	11.51	-3.429121.E-06	-6.922156.E-06
1053	11.52	-3.411271.E-06	-6.886166.E-06
1054	11.53	-3.393528.E-06	-6.850395.E-06
1055	11.54	-3.375893.E-06	-6.814839.E-06
1056	11.55	-3.358365.E-06	-6.779499.E-06
1057	11.56	-3.340944.E-06	-6.744372.E-06
1058	11.57	-3.323627.E-06	-6.709458.E-06
1059	11.58	-3.306415.E-06	-6.674754.E-06
1060	11.59	-3.289307.E-06	-6.640259.E-06
1061	11.60	-3.272302.E-06	-6.605972.E-06
1062	11.61	-3.255400.E-06	-6.571892.E-06
1063	11.62	-3.238599.E-06	-6.538016.E-06
1064	11.63	-3.221900.E-06	-6.504344.E-06
1065	11.64	-3.205301.E-06	-6.470874.E-06
1066	11.65	-3.188801.E-06	-6.437605.E-06
1067	11.66	-3.172401.E-06	-6.404535.E-06
1068	11.67	-3.156099.E-06	-6.371663.E-06
1069	11.68	-3.139894.E-06	-6.338988.E-06
1070	11.69	-3.123787.E-06	-6.306508.E-06
1071	11.70	-3.107776.E-06	-6.274222.E-06
1072	11.71	-3.091860.E-06	-6.242129.E-06
1073	11.72	-3.076040.E-06	-6.210227.E-06
1074	11.73	-3.060314.E-06	-6.178515.E-06
1075	11.74	-3.044681.E-06	-6.146992.E-06
1076	11.75	-3.029142.E-06	-6.115656.E-06
1077	11.76	-3.013695.E-06	-6.084507.E-06
1078	11.77	-2.998340.E-06	-6.053542.E-06
1079	11.78	-2.983077.E-06	-6.022761.E-06
1080	11.79	-2.967903.E-06	-5.992163.E-06
1081	11.80	-2.952820.E-06	-5.961745.E-06
1082	11.81	-2.937826.E-06	-5.931508.E-06
1083	11.82	-2.922921.E-06	-5.901449.E-06
1084	11.83	-2.908104.E-06	-5.871568.E-06
1085	11.84	-2.893375.E-06	-5.841864.E-06
1086	11.85	-2.878733.E-06	-5.812334.E-06
1087	11.86	-2.864177.E-06	-5.782979.E-06
1088	11.87	-2.849706.E-06	-5.753796.E-06
1089	11.88	-2.835321.E-06	-5.724785.E-06
1090	11.89	-2.821021.E-06	-5.695944.E-06
1091	11.90	-2.806805.E-06	-5.667273.E-06
1092	11.91	-2.792672.E-06	-5.638770.E-06
1093	11.92	-2.778622.E-06	-5.610434.E-06
1094	11.93	-2.764655.E-06	-5.582264.E-06
1095	11.94	-2.750769.E-06	-5.554259.E-06
1096	11.95	-2.736965.E-06	-5.526418.E-06
1097	11.96	-2.723242.E-06	-5.498739.E-06
1098	11.97	-2.709598.E-06	-5.471222.E-06
1099	11.98	-2.696035.E-06	-5.443865.E-06
1100	11.99	-2.682550.E-06	-5.416668.E-06
1101	12.00	-2.669145.E-06	-5.389629.E-06
1102	12.01	-2.655817.E-06	-5.362748.E-06
1103	12.02	-2.642567.E-06	-5.336023.E-06
1104	12.03	-2.629394.E-06	-5.309453.E-06
1105	12.04	-2.616297.E-06	-5.283037.E-06
1106	12.05	-2.603277.E-06	-5.256775.E-06
1107	12.06	-2.590332.E-06	-5.230665.E-06
1108	12.07	-2.577462.E-06	-5.204705.E-06
1109	12.08	-2.564667.E-06	-5.178896.E-06
1110	12.09	-2.551946.E-06	-5.153237.E-06
1111	12.10	-2.539298.E-06	-5.127725.E-06
1112	12.11	-2.526723.E-06	-5.102361.E-06
1113	12.12	-2.514221.E-06	-5.077142.E-06
1114	12.13	-2.501791.E-06	-5.052070.E-06
1115	12.14	-2.489433.E-06	-5.027141.E-06
1116	12.15	-2.477146.E-06	-5.002356.E-06
1117	12.16	-2.464930.E-06	-4.977713.E-06
1118	12.17	-2.452783.E-06	-4.953212.E-06
1119	12.18	-2.440707.E-06	-4.928851.E-06
1120	12.19	-2.428700.E-06	-4.904630.E-06
1121	12.20	-2.416762.E-06	-4.880548.E-06
1122	12.21	-2.404892.E-06	-4.856604.E-06
1123	12.22	-2.393090.E-06	-4.832796.E-06
1124	12.23	-2.381356.E-06	-4.809125.E-06
1125	12.24	-2.369689.E-06	-4.785588.E-06
1126	12.25	-2.358088.E-06	-4.762186.E-06
1127	12.26	-2.346554.E-06	-4.738918.E-06
1128	12.27	-2.335085.E-06	-4.715782.E-06
1129	12.28	-2.323682.E-06	-4.692777.E-06
1130	12.29	-2.312344.E-06	-4.669904.E-06
1131	12.30	-2.301070.E-06	-4.647160.E-06
1132	12.31	-2.289860.E-06	-4.624546.E-06
1133	12.32	-2.278714.E-06	-4.602059.E-06
1134	12.33	-2.267631.E-06	-4.579700.E-06
1135	12.34	-2.256611.E-06	-4.557468.E-06
1136	12.35	-2.245653.E-06	-4.535362.E-06
1137	12.36	-2.234758.E-06	-4.513381.E-06
1138	12.37	-2.223924.E-06	-4.491523.E-06
1139	12.38	-2.213151.E-06	-4.469790.E-06
1140	12.39	-2.202440.E-06	-4.448178.E-06
1141	12.40	-2.191788.E-06	-4.426689.E-06
1142	12.41	-2.181197.E-06	-4.405321.E-06
1143	12.42	-2.170665.E-06	-4.384072.E-06
1144	12.43	-2.160193.E-06	-4.362944.E-06
1145	12.44	-2.149779.E-06	-4.341934.E-06
1146	12.45	-2.139424.E-06	-4.321042.E-06
1147	12.46	-2.129128.E-06	-4.300267.E-06
1148	12.47	-2.118889.E-06	-4.279608.E-06
1149	12.48	-2.108707.E-06	-4.259066.E-06
1150	12.49	-2.098582.E-06	-4.238638.E-06
1151	12.50	-2.088514.E-06	-4.218324.E-06
1152	12.51	-2.078503.E-06	-4.198124.E-06
1153	12.52	-2.068547.E-06	-4.178037.E-06
1154	12.53	-2.058647.E-06	-4.158061.E-06
1155	12.54	-2.048802.E-06	-4.138198.E-06
1156	12.55	-2.039012.E-06	-4.118444.E-06
1157	12.56	-2.029277.E-06	-4.098801.E-06
1158	12.57	-2.019596.E-06	-4.079266.E-06
1159	12.58	-2.009969.E-06	-4.059841.E-06
1160	12.59	-2.000395.E-06	-4.040523.E-06
1161	12.60	-1.990874.E-06	-4.021312.E-06
1162	12.61	-1.981406.E-06	-4.002208.E-06
1163	12.62	-1.971991.E-06	-3.983210.E-06
1164	12.63	-1.962628.E-06	-3.964316.E-06
1165	12.64	-1.953316.E-06	-3.945527.E-06
1166	12.65	-1.944056.E-06	-3.926842.E-06
1167	12.66	-1.934848.E-06	-3.908260.E-06
1168	12.67	-1.925690.E-06	-3.889781.E-06
1169	12.68	-1.916583.E-06	-3.871404.E-06
1170	12.69	-1.907526.E-06	-3.853127.E-06
1171	12.70	-1.898518.E-06	-3.834952.E-06
1172	12.71	-1.889561.E-06	-3.816876.E-06
1173	12.72	-1.880653.E-06	-3.798899.E-06
1174	12.73	-1.871793.E-06	-3.781022.E-06
1175	12.74	-1.862983.E-06	-3.763242.E-06
1176	12.75	-1.854220.E-06	-3.745560.E-06
1177	12.76	-1.845506.E-06	-3.727974.E-06
1178	12.77	-1.836839.E-06	-3.710485.E-06
1179	12.78	-1.828220.E-06	-3.693092.E-06
1180	12.79	-1.819648.E-06	-3.675793.E-06
1181	12.80	-1.811123.E-06	-3.658589.E-06
1182	12.81	-1.802645.E-06	-3.641479.E-06
1183	12.82	-1.794213.E-06	-3.624462.E-06
1184	12.83	-1.785826.E-06	-3.607538.E-06
1185	12.84	-1.777486.E-06	-3.590706.E-06
1186	12.85	-1.769191.E-06	-3.573966.E-06
1187	12.86	-1.760941.E-06	-3.557316.E-06
1188	12.87	-1.752735.E-06	-3.540757.E-06
1189	12.88	-1.744575.E-06	-3.524288.E-06
1190	12.89	-1.736459.E-06	-3.507908.E-06
1191	12.90	-1.728386.E-06	-3.491617.E-06
1192	12.91	-1.720358.E-06	-3.475414.E-06
1193	12.92	-1.712373.E-06	-3.459299.E-06
1194	12.93	-1.704431.E-06	-3.443271.E-06
1195	12.94	-1.696532.E-06	-3.427329.E-06
1196	12.95	-1.688676.E-06	-3.411473.E-06
1197	12.96	-1.680862.E-06	-3.395703.E-06
1198	12.97	-1.673091.E-06	-3.380018.E-06
1199	12.98	-1.665361.E-06	-3.364418.E-06
1200	12.99	-1.657673.E-06	-3.348901.E-06
