# DATE: 2024-07-07  UNITS: metal  CONTRIBUTOR: By STUDENT			
# FHEP: Temp 77 [K], mr 1.71428571428571 [g/mol], Sigma 3.195 [A], Epsilon 0.00366325664804247 [eV]			
			
ENTRY			
N 1200 R 1.0 12.99			
			
1	1.00	4.980479.E+04	5.276537.E+05
2	1.01	4.361674.E+04	4.561141.E+05
3	1.02	3.825074.E+04	3.948769.E+05
4	1.03	3.359071.E+04	3.423743.E+05
5	1.04	2.953789.E+04	2.972895.E+05
6	1.05	2.600815.E+04	2.585148.E+05
7	1.06	2.292969.E+04	2.251164.E+05
8	1.07	2.024113.E+04	1.963060.E+05
9	1.08	1.788994.E+04	1.714170.E+05
10	1.09	1.583108.E+04	1.498848.E+05
11	1.10	1.402587.E+04	1.312304.E+05
12	1.11	1.244106.E+04	1.150467.E+05
13	1.12	1.104799.E+04	1.009875.E+05
14	1.13	9.821973.E+03	8.875748.E+04
15	1.14	8.741681.E+03	7.810466.E+04
16	1.15	7.788670.E+03	6.881365.E+04
17	1.16	6.946968.E+03	6.070006.E+04
18	1.17	6.202729.E+03	5.360583.E+04
19	1.18	5.543930.E+03	4.739527.E+04
20	1.19	4.960122.E+03	4.195171.E+04
21	1.20	4.442209.E+03	3.717477.E+04
22	1.21	3.982266.E+03	3.297791.E+04
23	1.22	3.573377.E+03	2.928643.E+04
24	1.23	3.209503.E+03	2.603579.E+04
25	1.24	2.885360.E+03	2.317016.E+04
26	1.25	2.596325.E+03	2.064117.E+04
27	1.26	2.338341.E+03	1.840684.E+04
28	1.27	2.107854.E+03	1.643075.E+04
29	1.28	1.901736.E+03	1.468122.E+04
30	1.29	1.717241.E+03	1.313067.E+04
31	1.30	1.551949.E+03	1.175507.E+04
32	1.31	1.403727.E+03	1.053346.E+04
33	1.32	1.270696.E+03	9.447539.E+03
34	1.33	1.151193.E+03	8.481286.E+03
35	1.34	1.043752.E+03	7.620692.E+03
36	1.35	9.470728.E+02	6.853480.E+03
37	1.36	8.600052.E+02	6.168880.E+03
38	1.37	7.815293.E+02	5.557437.E+03
39	1.38	7.107403.E+02	5.010838.E+03
40	1.39	6.468344.E+02	4.521771.E+03
41	1.40	5.890972.E+02	4.083795.E+03
42	1.41	5.368929.E+02	3.691234.E+03
43	1.42	4.896555.E+02	3.339077.E+03
44	1.43	4.468804.E+02	3.022899.E+03
45	1.44	4.081174.E+02	2.738789.E+03
46	1.45	3.729648.E+02	2.483284.E+03
47	1.46	3.410633.E+02	2.253318.E+03
48	1.47	3.120919.E+02	2.046174.E+03
49	1.48	2.857630.E+02	1.859439.E+03
50	1.49	2.618193.E+02	1.690972.E+03
51	1.50	2.400300.E+02	1.538870.E+03
52	1.51	2.201879.E+02	1.401438.E+03
53	1.52	2.021072.E+02	1.277168.E+03
54	1.53	1.856208.E+02	1.164719.E+03
55	1.54	1.705785.E+02	1.062890.E+03
56	1.55	1.568452.E+02	9.706138.E+02
57	1.56	1.442991.E+02	8.869337.E+02
58	1.57	1.328307.E+02	8.109962.E+02
59	1.58	1.223409.E+02	7.420373.E+02
60	1.59	1.127406.E+02	6.793728.E+02
61	1.60	1.039491.E+02	6.223900.E+02
62	1.61	9.589371.E+01	5.705392.E+02
63	1.62	8.850846.E+01	5.233273.E+02
64	1.63	8.173379.E+01	4.803113.E+02
65	1.64	7.551577.E+01	4.410932.E+02
66	1.65	6.980550.E+01	4.053151.E+02
67	1.66	6.455869.E+01	3.726548.E+02
68	1.67	5.973512.E+01	3.428224.E+02
69	1.68	5.529832.E+01	3.155562.E+02
70	1.69	5.121513.E+01	2.906205.E+02
71	1.70	4.745544.E+01	2.678027.E+02
72	1.71	4.399185.E+01	2.469105.E+02
73	1.72	4.079945.E+01	2.277703.E+02
74	1.73	3.785553.E+01	2.102251.E+02
75	1.74	3.513944.E+01	1.941330.E+02
76	1.75	3.263232.E+01	1.793653.E+02
77	1.76	3.031700.E+01	1.658055.E+02
78	1.77	2.817779.E+01	1.533480.E+02
79	1.78	2.620038.E+01	1.418970.E+02
80	1.79	2.437170.E+01	1.313656.E+02
81	1.80	2.267978.E+01	1.216747.E+02
82	1.81	2.111370.E+01	1.127528.E+02
83	1.82	1.966347.E+01	1.045345.E+02
84	1.83	1.831992.E+01	9.696044.E+01
85	1.84	1.707467.E+01	8.997666.E+01
86	1.85	1.592003.E+01	8.353393.E+01
87	1.86	1.484897.E+01	7.758742.E+01
88	1.87	1.385502.E+01	7.209623.E+01
89	1.88	1.293224.E+01	6.702307.E+01
90	1.89	1.207521.E+01	6.233388.E+01
91	1.90	1.127891.E+01	5.799757.E+01
92	1.91	1.053875.E+01	5.398572.E+01
93	1.92	9.850499.E+00	5.027235.E+01
94	1.93	9.210275.E+00	4.683370.E+01
95	1.94	8.614498.E+00	4.364800.E+01
96	1.95	8.059875.E+00	4.069535.E+01
97	1.96	7.543370.E+00	3.795749.E+01
98	1.97	7.062187.E+00	3.541770.E+01
99	1.98	6.613749.E+00	3.306065.E+01
100	1.99	6.195678.E+00	3.087224.E+01
101	2.00	5.805779.E+00	2.883958.E+01
102	2.01	5.442028.E+00	2.695079.E+01
103	2.02	5.102553.E+00	2.519496.E+01
104	2.03	4.785628.E+00	2.356208.E+01
105	2.04	4.489654.E+00	2.204294.E+01
106	2.05	4.213154.E+00	2.062904.E+01
107	2.06	3.954764.E+00	1.931258.E+01
108	2.07	3.713218.E+00	1.808638.E+01
109	2.08	3.487346.E+00	1.694380.E+01
110	2.09	3.276064.E+00	1.587874.E+01
111	2.10	3.078369.E+00	1.488558.E+01
112	2.11	2.893329.E+00	1.395910.E+01
113	2.12	2.720083.E+00	1.309453.E+01
114	2.13	2.557829.E+00	1.228742.E+01
115	2.14	2.405825.E+00	1.153370.E+01
116	2.15	2.263381.E+00	1.082958.E+01
117	2.16	2.129859.E+00	1.017157.E+01
118	2.17	2.004664.E+00	9.556428.E+00
119	2.18	1.887243.E+00	8.981173.E+00
120	2.19	1.777082.E+00	8.443035.E+00
121	2.20	1.673705.E+00	7.939450.E+00
122	2.21	1.576668.E+00	7.468044.E+00
123	2.22	1.485558.E+00	7.026615.E+00
124	2.23	1.399989.E+00	6.613125.E+00
125	2.24	1.319605.E+00	6.225680.E+00
126	2.25	1.244071.E+00	5.862525.E+00
127	2.26	1.173077.E+00	5.522031.E+00
128	2.27	1.106333.E+00	5.202685.E+00
129	2.28	1.043570.E+00	4.903082.E+00
130	2.29	9.845357.E-01	4.621917.E+00
131	2.30	9.289954.E-01	4.357975.E+00
132	2.31	8.767299.E-01	4.110129.E+00
133	2.32	8.275347.E-01	3.877330.E+00
134	2.33	7.812189.E-01	3.658599.E+00
135	2.34	7.376040.E-01	3.453029.E+00
136	2.35	6.965234.E-01	3.259773.E+00
137	2.36	6.578214.E-01	3.078043.E+00
138	2.37	6.213524.E-01	2.907103.E+00
139	2.38	5.869802.E-01	2.746271.E+00
140	2.39	5.545775.E-01	2.594906.E+00
141	2.40	5.240251.E-01	2.452415.E+00
142	2.41	4.952116.E-01	2.318240.E+00
143	2.42	4.680325.E-01	2.191865.E+00
144	2.43	4.423902.E-01	2.072805.E+00
145	2.44	4.181930.E-01	1.960608.E+00
146	2.45	3.953551.E-01	1.854852.E+00
147	2.46	3.737963.E-01	1.755142.E+00
148	2.47	3.534411.E-01	1.661110.E+00
149	2.48	3.342188.E-01	1.572411.E+00
150	2.49	3.160633.E-01	1.488722.E+00
151	2.50	2.989122.E-01	1.409742.E+00
152	2.51	2.827074.E-01	1.335188.E+00
153	2.52	2.673941.E-01	1.264797.E+00
154	2.53	2.529207.E-01	1.198320.E+00
155	2.54	2.392392.E-01	1.135525.E+00
156	2.55	2.263041.E-01	1.076196.E+00
157	2.56	2.140728.E-01	1.020130.E+00
158	2.57	2.025053.E-01	9.671338.E-01
159	2.58	1.915639.E-01	9.170302.E-01
160	2.59	1.812134.E-01	8.696510.E-01
161	2.60	1.714203.E-01	8.248386.E-01
162	2.61	1.621535.E-01	7.824453.E-01
163	2.62	1.533835.E-01	7.423324.E-01
164	2.63	1.450826.E-01	7.043696.E-01
165	2.64	1.372246.E-01	6.684344.E-01
166	2.65	1.297851.E-01	6.344121.E-01
167	2.66	1.227409.E-01	6.021946.E-01
168	2.67	1.160703.E-01	5.716803.E-01
169	2.68	1.097528.E-01	5.427739.E-01
170	2.69	1.037689.E-01	5.153855.E-01
171	2.70	9.810057.E-02	4.894307.E-01
172	2.71	9.273055.E-02	4.648301.E-01
173	2.72	8.764266.E-02	4.415089.E-01
174	2.73	8.282165.E-02	4.193968.E-01
175	2.74	7.825312.E-02	3.984273.E-01
176	2.75	7.392347.E-02	3.785383.E-01
177	2.76	6.981989.E-02	3.596708.E-01
178	2.77	6.593028.E-02	3.417695.E-01
179	2.78	6.224322.E-02	3.247821.E-01
180	2.79	5.874793.E-02	3.086595.E-01
181	2.80	5.543422.E-02	2.933553.E-01
182	2.81	5.229249.E-02	2.788257.E-01
183	2.82	4.931365.E-02	2.650293.E-01
184	2.83	4.648911.E-02	2.519274.E-01
185	2.84	4.381077.E-02	2.394831.E-01
186	2.85	4.127096.E-02	2.276618.E-01
187	2.86	3.886244.E-02	2.164306.E-01
188	2.87	3.657835.E-02	2.057587.E-01
189	2.88	3.441221.E-02	1.956169.E-01
190	2.89	3.235789.E-02	1.859775.E-01
191	2.90	3.040961.E-02	1.768145.E-01
192	2.91	2.856187.E-02	1.681033.E-01
193	2.92	2.680949.E-02	1.598205.E-01
194	2.93	2.514755.E-02	1.519442.E-01
195	2.94	2.357141.E-02	1.444534.E-01
196	2.95	2.207666.E-02	1.373286.E-01
197	2.96	2.065913.E-02	1.305510.E-01
198	2.97	1.931488.E-02	1.241031.E-01
199	2.98	1.804018.E-02	1.179681.E-01
200	2.99	1.683148.E-02	1.121303.E-01
201	3.00	1.568542.E-02	1.065747.E-01
202	3.01	1.459882.E-02	1.012871.E-01
203	3.02	1.356868.E-02	9.625420.E-02
204	3.03	1.259213.E-02	9.146320.E-02
205	3.04	1.166648.E-02	8.690210.E-02
206	3.05	1.078915.E-02	8.255949.E-02
207	3.06	9.957705.E-03	7.842456.E-02
208	3.07	9.169845.E-03	7.448706.E-02
209	3.08	8.423376.E-03	7.073728.E-02
210	3.09	7.716224.E-03	6.716601.E-02
211	3.10	7.046417.E-03	6.376451.E-02
212	3.11	6.412086.E-03	6.052450.E-02
213	3.12	5.811457.E-03	5.743811.E-02
214	3.13	5.242847.E-03	5.449787.E-02
215	3.14	4.704658.E-03	5.169672.E-02
216	3.15	4.195372.E-03	4.902793.E-02
217	3.16	3.713550.E-03	4.648512.E-02
218	3.17	3.257824.E-03	4.406222.E-02
219	3.18	2.826895.E-03	4.175350.E-02
220	3.19	2.419530.E-03	3.955347.E-02
221	3.20	2.034557.E-03	3.745696.E-02
222	3.21	1.670865.E-03	3.545903.E-02
223	3.22	1.327395.E-03	3.355500.E-02
224	3.23	1.003144.E-03	3.174040.E-02
225	3.24	6.971564.E-04	3.001101.E-02
226	3.25	4.085260.E-04	2.836280.E-02
227	3.26	1.363906.E-04	2.679195.E-02
228	3.27	-1.200688.E-04	2.529482.E-02
229	3.28	-3.616312.E-04	2.386795.E-02
230	3.29	-5.890367.E-04	2.250804.E-02
231	3.30	-8.029891.E-04	2.121197.E-02
232	3.31	-1.004158.E-03	1.997676.E-02
233	3.32	-1.193179.E-03	1.879957.E-02
234	3.33	-1.370657.E-03	1.767770.E-02
235	3.34	-1.537168.E-03	1.660859.E-02
236	3.35	-1.693260.E-03	1.558979.E-02
237	3.36	-1.839452.E-03	1.461897.E-02
238	3.37	-1.976241.E-03	1.369392.E-02
239	3.38	-2.104096.E-03	1.281254.E-02
240	3.39	-2.223466.E-03	1.197280.E-02
241	3.40	-2.334778.E-03	1.117279.E-02
242	3.41	-2.438436.E-03	1.041070.E-02
243	3.42	-2.534828.E-03	9.684776.E-03
244	3.43	-2.624320.E-03	8.993372.E-03
245	3.44	-2.707261.E-03	8.334907.E-03
246	3.45	-2.783985.E-03	7.707878.E-03
247	3.46	-2.854807.E-03	7.110852.E-03
248	3.47	-2.920030.E-03	6.542461.E-03
249	3.48	-2.979939.E-03	6.001404.E-03
250	3.49	-3.034808.E-03	5.486438.E-03
251	3.50	-3.084896.E-03	4.996378.E-03
252	3.51	-3.130450.E-03	4.530095.E-03
253	3.52	-3.171707.E-03	4.086511.E-03
254	3.53	-3.208889.E-03	3.664598.E-03
255	3.54	-3.242210.E-03	3.263376.E-03
256	3.55	-3.271873.E-03	2.881909.E-03
257	3.56	-3.298072.E-03	2.519305.E-03
258	3.57	-3.320990.E-03	2.174712.E-03
259	3.58	-3.340802.E-03	1.847316.E-03
260	3.59	-3.357675.E-03	1.536343.E-03
261	3.60	-3.371767.E-03	1.241051.E-03
262	3.61	-3.383231.E-03	9.607328.E-04
263	3.62	-3.392209.E-03	6.947143.E-04
264	3.63	-3.398838.E-03	4.423508.E-04
265	3.64	-3.403249.E-03	2.030268.E-04
266	3.65	-3.405566.E-03	-2.384513.E-05
267	3.66	-3.405906.E-03	-2.388262.E-04
268	3.67	-3.404382.E-03	-4.424524.E-04
269	3.68	-3.401102.E-03	-6.352355.E-04
270	3.69	-3.396166.E-03	-8.176647.E-04
271	3.70	-3.389672.E-03	-9.902069.E-04
272	3.71	-3.381712.E-03	-1.153308.E-03
273	3.72	-3.372373.E-03	-1.307396.E-03
274	3.73	-3.361739.E-03	-1.452876.E-03
275	3.74	-3.349890.E-03	-1.590139.E-03
276	3.75	-3.336901.E-03	-1.719556.E-03
277	3.76	-3.322844.E-03	-1.841483.E-03
278	3.77	-3.307787.E-03	-1.956260.E-03
279	3.78	-3.291795.E-03	-2.064211.E-03
280	3.79	-3.274930.E-03	-2.165647.E-03
281	3.80	-3.257251.E-03	-2.260864.E-03
282	3.81	-3.238814.E-03	-2.350146.E-03
283	3.82	-3.219672.E-03	-2.433765.E-03
284	3.83	-3.199876.E-03	-2.511979.E-03
285	3.84	-3.179472.E-03	-2.585036.E-03
286	3.85	-3.158509.E-03	-2.653174.E-03
287	3.86	-3.137027.E-03	-2.716618.E-03
288	3.87	-3.115069.E-03	-2.775586.E-03
289	3.88	-3.092675.E-03	-2.830284.E-03
290	3.89	-3.069880.E-03	-2.880910.E-03
291	3.90	-3.046720.E-03	-2.927655.E-03
292	3.91	-3.023229.E-03	-2.970699.E-03
293	3.92	-2.999438.E-03	-3.010215.E-03
294	3.93	-2.975378.E-03	-3.046369.E-03
295	3.94	-2.951078.E-03	-3.079320.E-03
296	3.95	-2.926563.E-03	-3.109218.E-03
297	3.96	-2.901861.E-03	-3.136210.E-03
298	3.97	-2.876995.E-03	-3.160433.E-03
299	3.98	-2.851988.E-03	-3.182021.E-03
300	3.99	-2.826862.E-03	-3.201099.E-03
301	4.00	-2.801639.E-03	-3.217790.E-03
302	4.01	-2.776337.E-03	-3.232209.E-03
303	4.02	-2.750975.E-03	-3.244467.E-03
304	4.03	-2.725570.E-03	-3.254671.E-03
305	4.04	-2.700140.E-03	-3.262921.E-03
306	4.05	-2.674699.E-03	-3.269315.E-03
307	4.06	-2.649263.E-03	-3.273947.E-03
308	4.07	-2.623845.E-03	-3.276903.E-03
309	4.08	-2.598458.E-03	-3.278271.E-03
310	4.09	-2.573116.E-03	-3.278130.E-03
311	4.10	-2.547829.E-03	-3.276558.E-03
312	4.11	-2.522608.E-03	-3.273630.E-03
313	4.12	-2.497464.E-03	-3.269418.E-03
314	4.13	-2.472407.E-03	-3.263987.E-03
315	4.14	-2.447445.E-03	-3.257405.E-03
316	4.15	-2.422587.E-03	-3.249733.E-03
317	4.16	-2.397842.E-03	-3.241029.E-03
318	4.17	-2.373216.E-03	-3.231352.E-03
319	4.18	-2.348716.E-03	-3.220755.E-03
320	4.19	-2.324350.E-03	-3.209291.E-03
321	4.20	-2.300123.E-03	-3.197008.E-03
322	4.21	-2.276041.E-03	-3.183954.E-03
323	4.22	-2.252109.E-03	-3.170176.E-03
324	4.23	-2.228332.E-03	-3.155715.E-03
325	4.24	-2.204715.E-03	-3.140613.E-03
326	4.25	-2.181261.E-03	-3.124911.E-03
327	4.26	-2.157975.E-03	-3.108645.E-03
328	4.27	-2.134860.E-03	-3.091852.E-03
329	4.28	-2.111920.E-03	-3.074566.E-03
330	4.29	-2.089157.E-03	-3.056821.E-03
331	4.30	-2.066574.E-03	-3.038647.E-03
332	4.31	-2.044174.E-03	-3.020076.E-03
333	4.32	-2.021958.E-03	-3.001134.E-03
334	4.33	-1.999930.E-03	-2.981851.E-03
335	4.34	-1.978089.E-03	-2.962251.E-03
336	4.35	-1.956439.E-03	-2.942360.E-03
337	4.36	-1.934981.E-03	-2.922202.E-03
338	4.37	-1.913715.E-03	-2.901800.E-03
339	4.38	-1.892642.E-03	-2.881174.E-03
340	4.39	-1.871764.E-03	-2.860347.E-03
341	4.40	-1.851081.E-03	-2.839336.E-03
342	4.41	-1.830594.E-03	-2.818162.E-03
343	4.42	-1.810303.E-03	-2.796842.E-03
344	4.43	-1.790208.E-03	-2.775393.E-03
345	4.44	-1.770310.E-03	-2.753831.E-03
346	4.45	-1.750608.E-03	-2.732172.E-03
347	4.46	-1.731103.E-03	-2.710430.E-03
348	4.47	-1.711794.E-03	-2.688620.E-03
349	4.48	-1.692681.E-03	-2.666755.E-03
350	4.49	-1.673763.E-03	-2.644847.E-03
351	4.50	-1.655040.E-03	-2.622909.E-03
352	4.51	-1.636511.E-03	-2.600951.E-03
353	4.52	-1.618176.E-03	-2.578985.E-03
354	4.53	-1.600035.E-03	-2.557022.E-03
355	4.54	-1.582085.E-03	-2.535070.E-03
356	4.55	-1.564327.E-03	-2.513140.E-03
357	4.56	-1.546759.E-03	-2.491239.E-03
358	4.57	-1.529381.E-03	-2.469377.E-03
359	4.58	-1.512191.E-03	-2.447561.E-03
360	4.59	-1.495189.E-03	-2.425799.E-03
361	4.60	-1.478372.E-03	-2.404098.E-03
362	4.61	-1.461741.E-03	-2.382464.E-03
363	4.62	-1.445294.E-03	-2.360904.E-03
364	4.63	-1.429029.E-03	-2.339424.E-03
365	4.64	-1.412946.E-03	-2.318029.E-03
366	4.65	-1.397042.E-03	-2.296725.E-03
367	4.66	-1.381317.E-03	-2.275517.E-03
368	4.67	-1.365770.E-03	-2.254410.E-03
369	4.68	-1.350398.E-03	-2.233407.E-03
370	4.69	-1.335201.E-03	-2.212513.E-03
371	4.70	-1.320177.E-03	-2.191732.E-03
372	4.71	-1.305324.E-03	-2.171068.E-03
373	4.72	-1.290642.E-03	-2.150524.E-03
374	4.73	-1.276128.E-03	-2.130103.E-03
375	4.74	-1.261781.E-03	-2.109808.E-03
376	4.75	-1.247600.E-03	-2.089642.E-03
377	4.76	-1.233582.E-03	-2.069607.E-03
378	4.77	-1.219728.E-03	-2.049706.E-03
379	4.78	-1.206034.E-03	-2.029941.E-03
380	4.79	-1.192500.E-03	-2.010314.E-03
381	4.80	-1.179124.E-03	-1.990827.E-03
382	4.81	-1.165904.E-03	-1.971481.E-03
383	4.82	-1.152839.E-03	-1.952278.E-03
384	4.83	-1.139927.E-03	-1.933220.E-03
385	4.84	-1.127166.E-03	-1.914307.E-03
386	4.85	-1.114556.E-03	-1.895541.E-03
387	4.86	-1.102095.E-03	-1.876924.E-03
388	4.87	-1.089780.E-03	-1.858454.E-03
389	4.88	-1.077611.E-03	-1.840134.E-03
390	4.89	-1.065586.E-03	-1.821965.E-03
391	4.90	-1.053704.E-03	-1.803946.E-03
392	4.91	-1.041962.E-03	-1.786078.E-03
393	4.92	-1.030359.E-03	-1.768362.E-03
394	4.93	-1.018894.E-03	-1.750797.E-03
395	4.94	-1.007566.E-03	-1.733385.E-03
396	4.95	-9.963721.E-04	-1.716125.E-03
397	4.96	-9.853116.E-04	-1.699017.E-03
398	4.97	-9.743829.E-04	-1.682061.E-03
399	4.98	-9.635845.E-04	-1.665257.E-03
400	4.99	-9.529148.E-04	-1.648605.E-03
401	5.00	-9.423725.E-04	-1.632105.E-03
402	5.01	-9.319561.E-04	-1.615756.E-03
403	5.02	-9.216641.E-04	-1.599558.E-03
404	5.03	-9.114951.E-04	-1.583511.E-03
405	5.04	-9.014476.E-04	-1.567614.E-03
406	5.05	-8.915203.E-04	-1.551867.E-03
407	5.06	-8.817117.E-04	-1.536269.E-03
408	5.07	-8.720205.E-04	-1.520819.E-03
409	5.08	-8.624452.E-04	-1.505518.E-03
410	5.09	-8.529845.E-04	-1.490364.E-03
411	5.10	-8.436371.E-04	-1.475356.E-03
412	5.11	-8.344015.E-04	-1.460495.E-03
413	5.12	-8.252765.E-04	-1.445779.E-03
414	5.13	-8.162607.E-04	-1.431207.E-03
415	5.14	-8.073528.E-04	-1.416779.E-03
416	5.15	-7.985515.E-04	-1.402493.E-03
417	5.16	-7.898556.E-04	-1.388350.E-03
418	5.17	-7.812637.E-04	-1.374347.E-03
419	5.18	-7.727746.E-04	-1.360485.E-03
420	5.19	-7.643870.E-04	-1.346762.E-03
421	5.20	-7.560998.E-04	-1.333177.E-03
422	5.21	-7.479116.E-04	-1.319730.E-03
423	5.22	-7.398213.E-04	-1.306419.E-03
424	5.23	-7.318276.E-04	-1.293243.E-03
425	5.24	-7.239295.E-04	-1.280202.E-03
426	5.25	-7.161256.E-04	-1.267294.E-03
427	5.26	-7.084149.E-04	-1.254518.E-03
428	5.27	-7.007962.E-04	-1.241874.E-03
429	5.28	-6.932684.E-04	-1.229360.E-03
430	5.29	-6.858303.E-04	-1.216975.E-03
431	5.30	-6.784808.E-04	-1.204719.E-03
432	5.31	-6.712188.E-04	-1.192589.E-03
433	5.32	-6.640433.E-04	-1.180586.E-03
434	5.33	-6.569532.E-04	-1.168708.E-03
435	5.34	-6.499473.E-04	-1.156954.E-03
436	5.35	-6.430248.E-04	-1.145322.E-03
437	5.36	-6.361844.E-04	-1.133812.E-03
438	5.37	-6.294252.E-04	-1.122424.E-03
439	5.38	-6.227462.E-04	-1.111154.E-03
440	5.39	-6.161464.E-04	-1.100003.E-03
441	5.40	-6.096248.E-04	-1.088970.E-03
442	5.41	-6.031803.E-04	-1.078053.E-03
443	5.42	-5.968121.E-04	-1.067251.E-03
444	5.43	-5.905192.E-04	-1.056564.E-03
445	5.44	-5.843006.E-04	-1.045990.E-03
446	5.45	-5.781555.E-04	-1.035528.E-03
447	5.46	-5.720828.E-04	-1.025176.E-03
448	5.47	-5.660817.E-04	-1.014935.E-03
449	5.48	-5.601513.E-04	-1.004803.E-03
450	5.49	-5.542906.E-04	-9.947779.E-04
451	5.50	-5.484989.E-04	-9.848600.E-04
452	5.51	-5.427753.E-04	-9.750478.E-04
453	5.52	-5.371188.E-04	-9.653402.E-04
454	5.53	-5.315286.E-04	-9.557362.E-04
455	5.54	-5.260040.E-04	-9.462347.E-04
456	5.55	-5.205441.E-04	-9.368347.E-04
457	5.56	-5.151480.E-04	-9.275353.E-04
458	5.57	-5.098150.E-04	-9.183353.E-04
459	5.58	-5.045443.E-04	-9.092337.E-04
460	5.59	-4.993351.E-04	-9.002295.E-04
461	5.60	-4.941865.E-04	-8.913218.E-04
462	5.61	-4.890980.E-04	-8.825095.E-04
463	5.62	-4.840686.E-04	-8.737916.E-04
464	5.63	-4.790977.E-04	-8.651672.E-04
465	5.64	-4.741846.E-04	-8.566352.E-04
466	5.65	-4.693284.E-04	-8.481947.E-04
467	5.66	-4.645285.E-04	-8.398447.E-04
468	5.67	-4.597842.E-04	-8.315844.E-04
469	5.68	-4.550947.E-04	-8.234126.E-04
470	5.69	-4.504595.E-04	-8.153285.E-04
471	5.70	-4.458777.E-04	-8.073311.E-04
472	5.71	-4.413488.E-04	-7.994196.E-04
473	5.72	-4.368720.E-04	-7.915929.E-04
474	5.73	-4.324468.E-04	-7.838502.E-04
475	5.74	-4.280724.E-04	-7.761906.E-04
476	5.75	-4.237482.E-04	-7.686131.E-04
477	5.76	-4.194737.E-04	-7.611170.E-04
478	5.77	-4.152481.E-04	-7.537012.E-04
479	5.78	-4.110709.E-04	-7.463649.E-04
480	5.79	-4.069415.E-04	-7.391073.E-04
481	5.80	-4.028592.E-04	-7.319275.E-04
482	5.81	-3.988236.E-04	-7.248247.E-04
483	5.82	-3.948339.E-04	-7.177979.E-04
484	5.83	-3.908896.E-04	-7.108464.E-04
485	5.84	-3.869902.E-04	-7.039693.E-04
486	5.85	-3.831350.E-04	-6.971659.E-04
487	5.86	-3.793236.E-04	-6.904353.E-04
488	5.87	-3.755554.E-04	-6.837766.E-04
489	5.88	-3.718299.E-04	-6.771892.E-04
490	5.89	-3.681465.E-04	-6.706722.E-04
491	5.90	-3.645047.E-04	-6.642248.E-04
492	5.91	-3.609039.E-04	-6.578463.E-04
493	5.92	-3.573438.E-04	-6.515358.E-04
494	5.93	-3.538237.E-04	-6.452928.E-04
495	5.94	-3.503432.E-04	-6.391163.E-04
496	5.95	-3.469018.E-04	-6.330056.E-04
497	5.96	-3.434990.E-04	-6.269600.E-04
498	5.97	-3.401343.E-04	-6.209789.E-04
499	5.98	-3.368072.E-04	-6.150614.E-04
500	5.99	-3.335174.E-04	-6.092068.E-04
501	6.00	-3.302643.E-04	-6.034145.E-04
502	6.01	-3.270474.E-04	-5.976837.E-04
503	6.02	-3.238664.E-04	-5.920138.E-04
504	6.03	-3.207207.E-04	-5.864041.E-04
505	6.04	-3.176100.E-04	-5.808539.E-04
506	6.05	-3.145339.E-04	-5.753625.E-04
507	6.06	-3.114918.E-04	-5.699292.E-04
508	6.07	-3.084834.E-04	-5.645535.E-04
509	6.08	-3.055082.E-04	-5.592347.E-04
510	6.09	-3.025660.E-04	-5.539721.E-04
511	6.10	-2.996561.E-04	-5.487650.E-04
512	6.11	-2.967784.E-04	-5.436130.E-04
513	6.12	-2.939323.E-04	-5.385153.E-04
514	6.13	-2.911174.E-04	-5.334713.E-04
515	6.14	-2.883335.E-04	-5.284805.E-04
516	6.15	-2.855801.E-04	-5.235422.E-04
517	6.16	-2.828568.E-04	-5.186558.E-04
518	6.17	-2.801633.E-04	-5.138208.E-04
519	6.18	-2.774993.E-04	-5.090366.E-04
520	6.19	-2.748643.E-04	-5.043026.E-04
521	6.20	-2.722580.E-04	-4.996182.E-04
522	6.21	-2.696800.E-04	-4.949829.E-04
523	6.22	-2.671301.E-04	-4.903961.E-04
524	6.23	-2.646079.E-04	-4.858573.E-04
525	6.24	-2.621130.E-04	-4.813659.E-04
526	6.25	-2.596451.E-04	-4.769215.E-04
527	6.26	-2.572039.E-04	-4.725234.E-04
528	6.27	-2.547891.E-04	-4.681711.E-04
529	6.28	-2.524003.E-04	-4.638642.E-04
530	6.29	-2.500372.E-04	-4.596021.E-04
531	6.30	-2.476996.E-04	-4.553843.E-04
532	6.31	-2.453871.E-04	-4.512103.E-04
533	6.32	-2.430994.E-04	-4.470797.E-04
534	6.33	-2.408362.E-04	-4.429919.E-04
535	6.34	-2.385973.E-04	-4.389464.E-04
536	6.35	-2.363823.E-04	-4.349428.E-04
537	6.36	-2.341909.E-04	-4.309807.E-04
538	6.37	-2.320229.E-04	-4.270594.E-04
539	6.38	-2.298780.E-04	-4.231787.E-04
540	6.39	-2.277560.E-04	-4.193379.E-04
541	6.40	-2.256564.E-04	-4.155367.E-04
542	6.41	-2.235792.E-04	-4.117747.E-04
543	6.42	-2.215239.E-04	-4.080513.E-04
544	6.43	-2.194904.E-04	-4.043662.E-04
545	6.44	-2.174784.E-04	-4.007190.E-04
546	6.45	-2.154877.E-04	-3.971091.E-04
547	6.46	-2.135179.E-04	-3.935362.E-04
548	6.47	-2.115688.E-04	-3.899998.E-04
549	6.48	-2.096403.E-04	-3.864997.E-04
550	6.49	-2.077320.E-04	-3.830352.E-04
551	6.50	-2.058437.E-04	-3.796062.E-04
552	6.51	-2.039752.E-04	-3.762120.E-04
553	6.52	-2.021263.E-04	-3.728525.E-04
554	6.53	-2.002967.E-04	-3.695271.E-04
555	6.54	-1.984861.E-04	-3.662355.E-04
556	6.55	-1.966944.E-04	-3.629773.E-04
557	6.56	-1.949214.E-04	-3.597522.E-04
558	6.57	-1.931668.E-04	-3.565597.E-04
559	6.58	-1.914304.E-04	-3.533996.E-04
560	6.59	-1.897121.E-04	-3.502714.E-04
561	6.60	-1.880115.E-04	-3.471748.E-04
562	6.61	-1.863285.E-04	-3.441095.E-04
563	6.62	-1.846629.E-04	-3.410750.E-04
564	6.63	-1.830144.E-04	-3.380711.E-04
565	6.64	-1.813830.E-04	-3.350975.E-04
566	6.65	-1.797683.E-04	-3.321537.E-04
567	6.66	-1.781702.E-04	-3.292394.E-04
568	6.67	-1.765885.E-04	-3.263544.E-04
569	6.68	-1.750231.E-04	-3.234982.E-04
570	6.69	-1.734736.E-04	-3.206707.E-04
571	6.70	-1.719400.E-04	-3.178714.E-04
572	6.71	-1.704220.E-04	-3.151000.E-04
573	6.72	-1.689195.E-04	-3.123563.E-04
574	6.73	-1.674324.E-04	-3.096400.E-04
575	6.74	-1.659603.E-04	-3.069506.E-04
576	6.75	-1.645032.E-04	-3.042880.E-04
577	6.76	-1.630609.E-04	-3.016518.E-04
578	6.77	-1.616331.E-04	-2.990418.E-04
579	6.78	-1.602199.E-04	-2.964577.E-04
580	6.79	-1.588209.E-04	-2.938991.E-04
581	6.80	-1.574360.E-04	-2.913658.E-04
582	6.81	-1.560650.E-04	-2.888575.E-04
583	6.82	-1.547079.E-04	-2.863740.E-04
584	6.83	-1.533644.E-04	-2.839150.E-04
585	6.84	-1.520344.E-04	-2.814802.E-04
586	6.85	-1.507177.E-04	-2.790693.E-04
587	6.86	-1.494143.E-04	-2.766820.E-04
588	6.87	-1.481238.E-04	-2.743183.E-04
589	6.88	-1.468462.E-04	-2.719776.E-04
590	6.89	-1.455814.E-04	-2.696599.E-04
591	6.90	-1.443292.E-04	-2.673649.E-04
592	6.91	-1.430894.E-04	-2.650922.E-04
593	6.92	-1.418620.E-04	-2.628418.E-04
594	6.93	-1.406467.E-04	-2.606132.E-04
595	6.94	-1.394435.E-04	-2.584064.E-04
596	6.95	-1.382522.E-04	-2.562210.E-04
597	6.96	-1.370726.E-04	-2.540569.E-04
598	6.97	-1.359048.E-04	-2.519137.E-04
599	6.98	-1.347484.E-04	-2.497914.E-04
600	6.99	-1.336034.E-04	-2.476895.E-04
601	7.00	-1.324696.E-04	-2.456080.E-04
602	7.01	-1.313470.E-04	-2.435466.E-04
603	7.02	-1.302355.E-04	-2.415051.E-04
604	7.03	-1.291348.E-04	-2.394832.E-04
605	7.04	-1.280448.E-04	-2.374809.E-04
606	7.05	-1.269655.E-04	-2.354977.E-04
607	7.06	-1.258968.E-04	-2.335336.E-04
608	7.07	-1.248385.E-04	-2.315884.E-04
609	7.08	-1.237904.E-04	-2.296618.E-04
610	7.09	-1.227526.E-04	-2.277536.E-04
611	7.10	-1.217248.E-04	-2.258637.E-04
612	7.11	-1.207070.E-04	-2.239918.E-04
613	7.12	-1.196991.E-04	-2.221378.E-04
614	7.13	-1.187009.E-04	-2.203014.E-04
615	7.14	-1.177123.E-04	-2.184825.E-04
616	7.15	-1.167333.E-04	-2.166809.E-04
617	7.16	-1.157637.E-04	-2.148964.E-04
618	7.17	-1.148034.E-04	-2.131289.E-04
619	7.18	-1.138524.E-04	-2.113780.E-04
620	7.19	-1.129105.E-04	-2.096438.E-04
621	7.20	-1.119776.E-04	-2.079259.E-04
622	7.21	-1.110537.E-04	-2.062243.E-04
623	7.22	-1.101386.E-04	-2.045387.E-04
624	7.23	-1.092322.E-04	-2.028689.E-04
625	7.24	-1.083345.E-04	-2.012149.E-04
626	7.25	-1.074453.E-04	-1.995764.E-04
627	7.26	-1.065646.E-04	-1.979533.E-04
628	7.27	-1.056922.E-04	-1.963455.E-04
629	7.28	-1.048281.E-04	-1.947526.E-04
630	7.29	-1.039723.E-04	-1.931747.E-04
631	7.30	-1.031245.E-04	-1.916115.E-04
632	7.31	-1.022847.E-04	-1.900629.E-04
633	7.32	-1.014529.E-04	-1.885288.E-04
634	7.33	-1.006289.E-04	-1.870089.E-04
635	7.34	-9.981263.E-05	-1.855032.E-04
636	7.35	-9.900406.E-05	-1.840114.E-04
637	7.36	-9.820310.E-05	-1.825335.E-04
638	7.37	-9.740964.E-05	-1.810693.E-04
639	7.38	-9.662362.E-05	-1.796186.E-04
640	7.39	-9.584496.E-05	-1.781813.E-04
641	7.40	-9.507358.E-05	-1.767574.E-04
642	7.41	-9.430939.E-05	-1.753465.E-04
643	7.42	-9.355233.E-05	-1.739487.E-04
644	7.43	-9.280232.E-05	-1.725637.E-04
645	7.44	-9.205928.E-05	-1.711915.E-04
646	7.45	-9.132314.E-05	-1.698318.E-04
647	7.46	-9.059383.E-05	-1.684846.E-04
648	7.47	-8.987128.E-05	-1.671498.E-04
649	7.48	-8.915542.E-05	-1.658272.E-04
650	7.49	-8.844617.E-05	-1.645167.E-04
651	7.50	-8.774346.E-05	-1.632181.E-04
652	7.51	-8.704724.E-05	-1.619314.E-04
653	7.52	-8.635742.E-05	-1.606564.E-04
654	7.53	-8.567395.E-05	-1.593929.E-04
655	7.54	-8.499675.E-05	-1.581410.E-04
656	7.55	-8.432577.E-05	-1.569004.E-04
657	7.56	-8.366093.E-05	-1.556711.E-04
658	7.57	-8.300218.E-05	-1.544529.E-04
659	7.58	-8.234944.E-05	-1.532458.E-04
660	7.59	-8.170267.E-05	-1.520495.E-04
661	7.60	-8.106179.E-05	-1.508640.E-04
662	7.61	-8.042674.E-05	-1.496893.E-04
663	7.62	-7.979747.E-05	-1.485251.E-04
664	7.63	-7.917391.E-05	-1.473713.E-04
665	7.64	-7.855601.E-05	-1.462279.E-04
666	7.65	-7.794371.E-05	-1.450948.E-04
667	7.66	-7.733695.E-05	-1.439719.E-04
668	7.67	-7.673567.E-05	-1.428590.E-04
669	7.68	-7.613982.E-05	-1.417560.E-04
670	7.69	-7.554935.E-05	-1.406629.E-04
671	7.70	-7.496418.E-05	-1.395795.E-04
672	7.71	-7.438429.E-05	-1.385058.E-04
673	7.72	-7.380959.E-05	-1.374417.E-04
674	7.73	-7.324006.E-05	-1.363870.E-04
675	7.74	-7.267563.E-05	-1.353417.E-04
676	7.75	-7.211625.E-05	-1.343056.E-04
677	7.76	-7.156187.E-05	-1.332787.E-04
678	7.77	-7.101243.E-05	-1.322609.E-04
679	7.78	-7.046790.E-05	-1.312522.E-04
680	7.79	-6.992822.E-05	-1.302523.E-04
681	7.80	-6.939334.E-05	-1.292612.E-04
682	7.81	-6.886320.E-05	-1.282788.E-04
683	7.82	-6.833778.E-05	-1.273051.E-04
684	7.83	-6.781701.E-05	-1.263400.E-04
685	7.84	-6.730085.E-05	-1.253833.E-04
686	7.85	-6.678925.E-05	-1.244350.E-04
687	7.86	-6.628217.E-05	-1.234951.E-04
688	7.87	-6.577956.E-05	-1.225633.E-04
689	7.88	-6.528138.E-05	-1.216397.E-04
690	7.89	-6.478758.E-05	-1.207241.E-04
691	7.90	-6.429812.E-05	-1.198165.E-04
692	7.91	-6.381296.E-05	-1.189169.E-04
693	7.92	-6.333205.E-05	-1.180250.E-04
694	7.93	-6.285535.E-05	-1.171409.E-04
695	7.94	-6.238282.E-05	-1.162645.E-04
696	7.95	-6.191442.E-05	-1.153956.E-04
697	7.96	-6.145010.E-05	-1.145343.E-04
698	7.97	-6.098983.E-05	-1.136805.E-04
699	7.98	-6.053357.E-05	-1.128340.E-04
700	7.99	-6.008127.E-05	-1.119948.E-04
701	8.00	-5.963290.E-05	-1.111628.E-04
702	8.01	-5.918842.E-05	-1.103380.E-04
703	8.02	-5.874779.E-05	-1.095203.E-04
704	8.03	-5.831097.E-05	-1.087096.E-04
705	8.04	-5.787792.E-05	-1.079059.E-04
706	8.05	-5.744861.E-05	-1.071091.E-04
707	8.06	-5.702300.E-05	-1.063191.E-04
708	8.07	-5.660106.E-05	-1.055358.E-04
709	8.08	-5.618275.E-05	-1.047592.E-04
710	8.09	-5.576803.E-05	-1.039893.E-04
711	8.10	-5.535686.E-05	-1.032259.E-04
712	8.11	-5.494923.E-05	-1.024690.E-04
713	8.12	-5.454508.E-05	-1.017185.E-04
714	8.13	-5.414438.E-05	-1.009744.E-04
715	8.14	-5.374711.E-05	-1.002366.E-04
716	8.15	-5.335322.E-05	-9.950512.E-05
717	8.16	-5.296269.E-05	-9.877978.E-05
718	8.17	-5.257549.E-05	-9.806057.E-05
719	8.18	-5.219157.E-05	-9.734744.E-05
720	8.19	-5.181092.E-05	-9.664032.E-05
721	8.20	-5.143349.E-05	-9.593916.E-05
722	8.21	-5.105925.E-05	-9.524389.E-05
723	8.22	-5.068819.E-05	-9.455447.E-05
724	8.23	-5.032026.E-05	-9.387084.E-05
725	8.24	-4.995543.E-05	-9.319294.E-05
726	8.25	-4.959368.E-05	-9.252072.E-05
727	8.26	-4.923497.E-05	-9.185413.E-05
728	8.27	-4.887929.E-05	-9.119310.E-05
729	8.28	-4.852659.E-05	-9.053760.E-05
730	8.29	-4.817684.E-05	-8.988756.E-05
731	8.30	-4.783003.E-05	-8.924294.E-05
732	8.31	-4.748613.E-05	-8.860367.E-05
733	8.32	-4.714509.E-05	-8.796973.E-05
734	8.33	-4.680691.E-05	-8.734104.E-05
735	8.34	-4.647155.E-05	-8.671757.E-05
736	8.35	-4.613898.E-05	-8.609926.E-05
737	8.36	-4.580918.E-05	-8.548607.E-05
738	8.37	-4.548212.E-05	-8.487794.E-05
739	8.38	-4.515777.E-05	-8.427484.E-05
740	8.39	-4.483612.E-05	-8.367671.E-05
741	8.40	-4.451713.E-05	-8.308350.E-05
742	8.41	-4.420078.E-05	-8.249518.E-05
743	8.42	-4.388704.E-05	-8.191169.E-05
744	8.43	-4.357590.E-05	-8.133300.E-05
745	8.44	-4.326732.E-05	-8.075904.E-05
746	8.45	-4.296128.E-05	-8.018979.E-05
747	8.46	-4.265776.E-05	-7.962520.E-05
748	8.47	-4.235673.E-05	-7.906522.E-05
749	8.48	-4.205817.E-05	-7.850981.E-05
750	8.49	-4.176207.E-05	-7.795893.E-05
751	8.50	-4.146838.E-05	-7.741254.E-05
752	8.51	-4.117710.E-05	-7.687060.E-05
753	8.52	-4.088820.E-05	-7.633306.E-05
754	8.53	-4.060166.E-05	-7.579988.E-05
755	8.54	-4.031745.E-05	-7.527103.E-05
756	8.55	-4.003556.E-05	-7.474646.E-05
757	8.56	-3.975596.E-05	-7.422614.E-05
758	8.57	-3.947863.E-05	-7.371003.E-05
759	8.58	-3.920355.E-05	-7.319808.E-05
760	8.59	-3.893070.E-05	-7.269025.E-05
761	8.60	-3.866006.E-05	-7.218653.E-05
762	8.61	-3.839161.E-05	-7.168685.E-05
763	8.62	-3.812533.E-05	-7.119119.E-05
764	8.63	-3.786120.E-05	-7.069951.E-05
765	8.64	-3.759920.E-05	-7.021178.E-05
766	8.65	-3.733930.E-05	-6.972795.E-05
767	8.66	-3.708150.E-05	-6.924800.E-05
768	8.67	-3.682576.E-05	-6.877188.E-05
769	8.68	-3.657208.E-05	-6.829956.E-05
770	8.69	-3.632044.E-05	-6.783102.E-05
771	8.70	-3.607080.E-05	-6.736620.E-05
772	8.71	-3.582316.E-05	-6.690509.E-05
773	8.72	-3.557751.E-05	-6.644764.E-05
774	8.73	-3.533381.E-05	-6.599383.E-05
775	8.74	-3.509205.E-05	-6.554362.E-05
776	8.75	-3.485222.E-05	-6.509697.E-05
777	8.76	-3.461430.E-05	-6.465386.E-05
778	8.77	-3.437826.E-05	-6.421426.E-05
779	8.78	-3.414410.E-05	-6.377812.E-05
780	8.79	-3.391179.E-05	-6.334543.E-05
781	8.80	-3.368133.E-05	-6.291615.E-05
782	8.81	-3.345268.E-05	-6.249025.E-05
783	8.82	-3.322585.E-05	-6.206770.E-05
784	8.83	-3.300080.E-05	-6.164847.E-05
785	8.84	-3.277753.E-05	-6.123253.E-05
786	8.85	-3.255601.E-05	-6.081986.E-05
787	8.86	-3.233624.E-05	-6.041041.E-05
788	8.87	-3.211819.E-05	-6.000416.E-05
789	8.88	-3.190186.E-05	-5.960110.E-05
790	8.89	-3.168722.E-05	-5.920117.E-05
791	8.90	-3.147426.E-05	-5.880437.E-05
792	8.91	-3.126296.E-05	-5.841066.E-05
793	8.92	-3.105332.E-05	-5.802001.E-05
794	8.93	-3.084531.E-05	-5.763239.E-05
795	8.94	-3.063893.E-05	-5.724779.E-05
796	8.95	-3.043415.E-05	-5.686617.E-05
797	8.96	-3.023097.E-05	-5.648751.E-05
798	8.97	-3.002936.E-05	-5.611177.E-05
799	8.98	-2.982932.E-05	-5.573894.E-05
800	8.99	-2.963083.E-05	-5.536900.E-05
801	9.00	-2.943388.E-05	-5.500190.E-05
802	9.01	-2.923845.E-05	-5.463764.E-05
803	9.02	-2.904453.E-05	-5.427618.E-05
804	9.03	-2.885211.E-05	-5.391749.E-05
805	9.04	-2.866117.E-05	-5.356157.E-05
806	9.05	-2.847171.E-05	-5.320837.E-05
807	9.06	-2.828370.E-05	-5.285789.E-05
808	9.07	-2.809713.E-05	-5.251008.E-05
809	9.08	-2.791200.E-05	-5.216494.E-05
810	9.09	-2.772829.E-05	-5.182244.E-05
811	9.10	-2.754599.E-05	-5.148254.E-05
812	9.11	-2.736508.E-05	-5.114525.E-05
813	9.12	-2.718555.E-05	-5.081052.E-05
814	9.13	-2.700740.E-05	-5.047833.E-05
815	9.14	-2.683061.E-05	-5.014868.E-05
816	9.15	-2.665516.E-05	-4.982152.E-05
817	9.16	-2.648105.E-05	-4.949685.E-05
818	9.17	-2.630826.E-05	-4.917464.E-05
819	9.18	-2.613678.E-05	-4.885486.E-05
820	9.19	-2.596661.E-05	-4.853751.E-05
821	9.20	-2.579772.E-05	-4.822255.E-05
822	9.21	-2.563012.E-05	-4.790997.E-05
823	9.22	-2.546378.E-05	-4.759974.E-05
824	9.23	-2.529870.E-05	-4.729185.E-05
825	9.24	-2.513486.E-05	-4.698628.E-05
826	9.25	-2.497226.E-05	-4.668300.E-05
827	9.26	-2.481088.E-05	-4.638200.E-05
828	9.27	-2.465072.E-05	-4.608325.E-05
829	9.28	-2.449177.E-05	-4.578675.E-05
830	9.29	-2.433400.E-05	-4.549246.E-05
831	9.30	-2.417742.E-05	-4.520037.E-05
832	9.31	-2.402201.E-05	-4.491046.E-05
833	9.32	-2.386777.E-05	-4.462272.E-05
834	9.33	-2.371467.E-05	-4.433712.E-05
835	9.34	-2.356273.E-05	-4.405364.E-05
836	9.35	-2.341191.E-05	-4.377228.E-05
837	9.36	-2.326222.E-05	-4.349300.E-05
838	9.37	-2.311364.E-05	-4.321580.E-05
839	9.38	-2.296617.E-05	-4.294065.E-05
840	9.39	-2.281980.E-05	-4.266754.E-05
841	9.40	-2.267451.E-05	-4.239645.E-05
842	9.41	-2.253029.E-05	-4.212736.E-05
843	9.42	-2.238715.E-05	-4.186026.E-05
844	9.43	-2.224506.E-05	-4.159513.E-05
845	9.44	-2.210403.E-05	-4.133196.E-05
846	9.45	-2.196403.E-05	-4.107072.E-05
847	9.46	-2.182507.E-05	-4.081140.E-05
848	9.47	-2.168713.E-05	-4.055398.E-05
849	9.48	-2.155021.E-05	-4.029846.E-05
850	9.49	-2.141429.E-05	-4.004480.E-05
851	9.50	-2.127937.E-05	-3.979301.E-05
852	9.51	-2.114545.E-05	-3.954306.E-05
853	9.52	-2.101250.E-05	-3.929493.E-05
854	9.53	-2.088053.E-05	-3.904861.E-05
855	9.54	-2.074952.E-05	-3.880409.E-05
856	9.55	-2.061947.E-05	-3.856136.E-05
857	9.56	-2.049036.E-05	-3.832039.E-05
858	9.57	-2.036220.E-05	-3.808117.E-05
859	9.58	-2.023498.E-05	-3.784369.E-05
860	9.59	-2.010868.E-05	-3.760793.E-05
861	9.60	-1.998329.E-05	-3.737388.E-05
862	9.61	-1.985882.E-05	-3.714152.E-05
863	9.62	-1.973525.E-05	-3.691085.E-05
864	9.63	-1.961258.E-05	-3.668184.E-05
865	9.64	-1.949079.E-05	-3.645449.E-05
866	9.65	-1.936988.E-05	-3.622877.E-05
867	9.66	-1.924985.E-05	-3.600468.E-05
868	9.67	-1.913069.E-05	-3.578221.E-05
869	9.68	-1.901238.E-05	-3.556133.E-05
870	9.69	-1.889492.E-05	-3.534204.E-05
871	9.70	-1.877832.E-05	-3.512433.E-05
872	9.71	-1.866254.E-05	-3.490817.E-05
873	9.72	-1.854760.E-05	-3.469357.E-05
874	9.73	-1.843349.E-05	-3.448050.E-05
875	9.74	-1.832019.E-05	-3.426895.E-05
876	9.75	-1.820770.E-05	-3.405891.E-05
877	9.76	-1.809602.E-05	-3.385037.E-05
878	9.77	-1.798514.E-05	-3.364331.E-05
879	9.78	-1.787504.E-05	-3.343773.E-05
880	9.79	-1.776573.E-05	-3.323361.E-05
881	9.80	-1.765720.E-05	-3.303095.E-05
882	9.81	-1.754945.E-05	-3.282972.E-05
883	9.82	-1.744245.E-05	-3.262991.E-05
884	9.83	-1.733622.E-05	-3.243152.E-05
885	9.84	-1.723074.E-05	-3.223454.E-05
886	9.85	-1.712601.E-05	-3.203895.E-05
887	9.86	-1.702202.E-05	-3.184474.E-05
888	9.87	-1.691877.E-05	-3.165190.E-05
889	9.88	-1.681624.E-05	-3.146042.E-05
890	9.89	-1.671444.E-05	-3.127028.E-05
891	9.90	-1.661336.E-05	-3.108149.E-05
892	9.91	-1.651299.E-05	-3.089402.E-05
893	9.92	-1.641332.E-05	-3.070787.E-05
894	9.93	-1.631436.E-05	-3.052302.E-05
895	9.94	-1.621609.E-05	-3.033947.E-05
896	9.95	-1.611851.E-05	-3.015720.E-05
897	9.96	-1.602162.E-05	-2.997621.E-05
898	9.97	-1.592540.E-05	-2.979648.E-05
899	9.98	-1.582986.E-05	-2.961800.E-05
900	9.99	-1.573498.E-05	-2.944077.E-05
901	10.00	-1.564077.E-05	-2.926478.E-05
902	10.01	-1.554721.E-05	-2.909001.E-05
903	10.02	-1.545430.E-05	-2.891645.E-05
904	10.03	-1.536204.E-05	-2.874410.E-05
905	10.04	-1.527043.E-05	-2.857295.E-05
906	10.05	-1.517945.E-05	-2.840298.E-05
907	10.06	-1.508910.E-05	-2.823419.E-05
908	10.07	-1.499938.E-05	-2.806656.E-05
909	10.08	-1.491028.E-05	-2.790010.E-05
910	10.09	-1.482179.E-05	-2.773478.E-05
911	10.10	-1.473392.E-05	-2.757061.E-05
912	10.11	-1.464665.E-05	-2.740756.E-05
913	10.12	-1.455999.E-05	-2.724564.E-05
914	10.13	-1.447392.E-05	-2.708483.E-05
915	10.14	-1.438845.E-05	-2.692513.E-05
916	10.15	-1.430356.E-05	-2.676652.E-05
917	10.16	-1.421926.E-05	-2.660901.E-05
918	10.17	-1.413554.E-05	-2.645257.E-05
919	10.18	-1.405239.E-05	-2.629720.E-05
920	10.19	-1.396981.E-05	-2.614289.E-05
921	10.20	-1.388779.E-05	-2.598964.E-05
922	10.21	-1.380634.E-05	-2.583743.E-05
923	10.22	-1.372545.E-05	-2.568626.E-05
924	10.23	-1.364510.E-05	-2.553612.E-05
925	10.24	-1.356530.E-05	-2.538701.E-05
926	10.25	-1.348605.E-05	-2.523890.E-05
927	10.26	-1.340734.E-05	-2.509180.E-05
928	10.27	-1.332916.E-05	-2.494571.E-05
929	10.28	-1.325151.E-05	-2.480060.E-05
930	10.29	-1.317439.E-05	-2.465647.E-05
931	10.30	-1.309779.E-05	-2.451332.E-05
932	10.31	-1.302172.E-05	-2.437114.E-05
933	10.32	-1.294615.E-05	-2.422991.E-05
934	10.33	-1.287110.E-05	-2.408964.E-05
935	10.34	-1.279655.E-05	-2.395032.E-05
936	10.35	-1.272251.E-05	-2.381193.E-05
937	10.36	-1.264897.E-05	-2.367448.E-05
938	10.37	-1.257592.E-05	-2.353794.E-05
939	10.38	-1.250336.E-05	-2.340233.E-05
940	10.39	-1.243129.E-05	-2.326763.E-05
941	10.40	-1.235971.E-05	-2.313382.E-05
942	10.41	-1.228860.E-05	-2.300092.E-05
943	10.42	-1.221797.E-05	-2.286890.E-05
944	10.43	-1.214782.E-05	-2.273777.E-05
945	10.44	-1.207813.E-05	-2.260751.E-05
946	10.45	-1.200891.E-05	-2.247812.E-05
947	10.46	-1.194015.E-05	-2.234959.E-05
948	10.47	-1.187185.E-05	-2.222192.E-05
949	10.48	-1.180401.E-05	-2.209509.E-05
950	10.49	-1.173662.E-05	-2.196911.E-05
951	10.50	-1.166967.E-05	-2.184397.E-05
952	10.51	-1.160317.E-05	-2.171966.E-05
953	10.52	-1.153711.E-05	-2.159617.E-05
954	10.53	-1.147149.E-05	-2.147350.E-05
955	10.54	-1.140631.E-05	-2.135164.E-05
956	10.55	-1.134156.E-05	-2.123058.E-05
957	10.56	-1.127723.E-05	-2.111032.E-05
958	10.57	-1.121333.E-05	-2.099086.E-05
959	10.58	-1.114985.E-05	-2.087219.E-05
960	10.59	-1.108679.E-05	-2.075429.E-05
961	10.60	-1.102415.E-05	-2.063717.E-05
962	10.61	-1.096192.E-05	-2.052083.E-05
963	10.62	-1.090010.E-05	-2.040524.E-05
964	10.63	-1.083868.E-05	-2.029041.E-05
965	10.64	-1.077767.E-05	-2.017634.E-05
966	10.65	-1.071705.E-05	-2.006301.E-05
967	10.66	-1.065684.E-05	-1.995043.E-05
968	10.67	-1.059702.E-05	-1.983858.E-05
969	10.68	-1.053759.E-05	-1.972746.E-05
970	10.69	-1.047855.E-05	-1.961706.E-05
971	10.70	-1.041989.E-05	-1.950739.E-05
972	10.71	-1.036162.E-05	-1.939843.E-05
973	10.72	-1.030372.E-05	-1.929017.E-05
974	10.73	-1.024621.E-05	-1.918263.E-05
975	10.74	-1.018906.E-05	-1.907577.E-05
976	10.75	-1.013229.E-05	-1.896962.E-05
977	10.76	-1.007589.E-05	-1.886415.E-05
978	10.77	-1.001985.E-05	-1.875936.E-05
979	10.78	-9.964178.E-06	-1.865525.E-05
980	10.79	-9.908865.E-06	-1.855182.E-05
981	10.80	-9.853909.E-06	-1.844905.E-05
982	10.81	-9.799309.E-06	-1.834695.E-05
983	10.82	-9.745061.E-06	-1.824550.E-05
984	10.83	-9.691163.E-06	-1.814471.E-05
985	10.84	-9.637612.E-06	-1.804456.E-05
986	10.85	-9.584406.E-06	-1.794506.E-05
987	10.86	-9.531543.E-06	-1.784620.E-05
988	10.87	-9.479019.E-06	-1.774797.E-05
989	10.88	-9.426832.E-06	-1.765038.E-05
990	10.89	-9.374981.E-06	-1.755340.E-05
991	10.90	-9.323461.E-06	-1.745705.E-05
992	10.91	-9.272272.E-06	-1.736132.E-05
993	10.92	-9.221410.E-06	-1.726619.E-05
994	10.93	-9.170873.E-06	-1.717168.E-05
995	10.94	-9.120659.E-06	-1.707776.E-05
996	10.95	-9.070765.E-06	-1.698444.E-05
997	10.96	-9.021189.E-06	-1.689172.E-05
998	10.97	-8.971929.E-06	-1.679959.E-05
999	10.98	-8.922983.E-06	-1.670804.E-05
1000	10.99	-8.874347.E-06	-1.661708.E-05
1001	11.00	-8.826021.E-06	-1.652669.E-05
1002	11.01	-8.778001.E-06	-1.643687.E-05
1003	11.02	-8.730286.E-06	-1.634762.E-05
1004	11.03	-8.682873.E-06	-1.625894.E-05
1005	11.04	-8.635760.E-06	-1.617082.E-05
1006	11.05	-8.588945.E-06	-1.608325.E-05
1007	11.06	-8.542425.E-06	-1.599624.E-05
1008	11.07	-8.496200.E-06	-1.590977.E-05
1009	11.08	-8.450265.E-06	-1.582385.E-05
1010	11.09	-8.404620.E-06	-1.573847.E-05
1011	11.10	-8.359263.E-06	-1.565362.E-05
1012	11.11	-8.314191.E-06	-1.556931.E-05
1013	11.12	-8.269402.E-06	-1.548553.E-05
1014	11.13	-8.224894.E-06	-1.540227.E-05
1015	11.14	-8.180665.E-06	-1.531954.E-05
1016	11.15	-8.136713.E-06	-1.523732.E-05
1017	11.16	-8.093037.E-06	-1.515561.E-05
1018	11.17	-8.049634.E-06	-1.507442.E-05
1019	11.18	-8.006502.E-06	-1.499373.E-05
1020	11.19	-7.963639.E-06	-1.491355.E-05
1021	11.20	-7.921044.E-06	-1.483387.E-05
1022	11.21	-7.878714.E-06	-1.475468.E-05
1023	11.22	-7.836648.E-06	-1.467598.E-05
1024	11.23	-7.794844.E-06	-1.459777.E-05
1025	11.24	-7.753300.E-06	-1.452005.E-05
1026	11.25	-7.712013.E-06	-1.444281.E-05
1027	11.26	-7.670983.E-06	-1.436605.E-05
1028	11.27	-7.630207.E-06	-1.428977.E-05
1029	11.28	-7.589684.E-06	-1.421395.E-05
1030	11.29	-7.549412.E-06	-1.413861.E-05
1031	11.30	-7.509388.E-06	-1.406373.E-05
1032	11.31	-7.469612.E-06	-1.398931.E-05
1033	11.32	-7.430082.E-06	-1.391535.E-05
1034	11.33	-7.390795.E-06	-1.384185.E-05
1035	11.34	-7.351750.E-06	-1.376880.E-05
1036	11.35	-7.312946.E-06	-1.369620.E-05
1037	11.36	-7.274380.E-06	-1.362404.E-05
1038	11.37	-7.236052.E-06	-1.355233.E-05
1039	11.38	-7.197959.E-06	-1.348106.E-05
1040	11.39	-7.160099.E-06	-1.341022.E-05
1041	11.40	-7.122472.E-06	-1.333982.E-05
1042	11.41	-7.085075.E-06	-1.326984.E-05
1043	11.42	-7.047907.E-06	-1.320030.E-05
1044	11.43	-7.010966.E-06	-1.313118.E-05
1045	11.44	-6.974251.E-06	-1.306248.E-05
1046	11.45	-6.937760.E-06	-1.299420.E-05
1047	11.46	-6.901491.E-06	-1.292634.E-05
1048	11.47	-6.865443.E-06	-1.285889.E-05
1049	11.48	-6.829615.E-06	-1.279185.E-05
1050	11.49	-6.794005.E-06	-1.272521.E-05
1051	11.50	-6.758611.E-06	-1.265898.E-05
1052	11.51	-6.723432.E-06	-1.259316.E-05
1053	11.52	-6.688466.E-06	-1.252773.E-05
1054	11.53	-6.653713.E-06	-1.246269.E-05
1055	11.54	-6.619169.E-06	-1.239806.E-05
1056	11.55	-6.584835.E-06	-1.233381.E-05
1057	11.56	-6.550709.E-06	-1.226995.E-05
1058	11.57	-6.516788.E-06	-1.220647.E-05
1059	11.58	-6.483072.E-06	-1.214338.E-05
1060	11.59	-6.449560.E-06	-1.208066.E-05
1061	11.60	-6.416249.E-06	-1.201833.E-05
1062	11.61	-6.383139.E-06	-1.195637.E-05
1063	11.62	-6.350228.E-06	-1.189478.E-05
1064	11.63	-6.317515.E-06	-1.183356.E-05
1065	11.64	-6.284998.E-06	-1.177271.E-05
1066	11.65	-6.252676.E-06	-1.171222.E-05
1067	11.66	-6.220548.E-06	-1.165210.E-05
1068	11.67	-6.188613.E-06	-1.159233.E-05
1069	11.68	-6.156868.E-06	-1.153292.E-05
1070	11.69	-6.125314.E-06	-1.147387.E-05
1071	11.70	-6.093947.E-06	-1.141517.E-05
1072	11.71	-6.062768.E-06	-1.135682.E-05
1073	11.72	-6.031775.E-06	-1.129881.E-05
1074	11.73	-6.000967.E-06	-1.124115.E-05
1075	11.74	-5.970342.E-06	-1.118384.E-05
1076	11.75	-5.939899.E-06	-1.112686.E-05
1077	11.76	-5.909637.E-06	-1.107023.E-05
1078	11.77	-5.879555.E-06	-1.101392.E-05
1079	11.78	-5.849651.E-06	-1.095796.E-05
1080	11.79	-5.819924.E-06	-1.090232.E-05
1081	11.80	-5.790374.E-06	-1.084701.E-05
1082	11.81	-5.760998.E-06	-1.079203.E-05
1083	11.82	-5.731796.E-06	-1.073738.E-05
1084	11.83	-5.702767.E-06	-1.068305.E-05
1085	11.84	-5.673909.E-06	-1.062903.E-05
1086	11.85	-5.645221.E-06	-1.057534.E-05
1087	11.86	-5.616703.E-06	-1.052196.E-05
1088	11.87	-5.588352.E-06	-1.046890.E-05
1089	11.88	-5.560168.E-06	-1.041614.E-05
1090	11.89	-5.532149.E-06	-1.036370.E-05
1091	11.90	-5.504296.E-06	-1.031157.E-05
1092	11.91	-5.476605.E-06	-1.025974.E-05
1093	11.92	-5.449077.E-06	-1.020821.E-05
1094	11.93	-5.421711.E-06	-1.015699.E-05
1095	11.94	-5.394504.E-06	-1.010606.E-05
1096	11.95	-5.367457.E-06	-1.005544.E-05
1097	11.96	-5.340567.E-06	-1.000510.E-05
1098	11.97	-5.313835.E-06	-9.955066.E-06
1099	11.98	-5.287259.E-06	-9.905319.E-06
1100	11.99	-5.260837.E-06	-9.855862.E-06
1101	12.00	-5.234570.E-06	-9.806693.E-06
1102	12.01	-5.208455.E-06	-9.757810.E-06
1103	12.02	-5.182492.E-06	-9.709211.E-06
1104	12.03	-5.156680.E-06	-9.660893.E-06
1105	12.04	-5.131018.E-06	-9.612856.E-06
1106	12.05	-5.105505.E-06	-9.565098.E-06
1107	12.06	-5.080140.E-06	-9.517615.E-06
1108	12.07	-5.054921.E-06	-9.470408.E-06
1109	12.08	-5.029849.E-06	-9.423473.E-06
1110	12.09	-5.004921.E-06	-9.376809.E-06
1111	12.10	-4.980137.E-06	-9.330415.E-06
1112	12.11	-4.955497.E-06	-9.284288.E-06
1113	12.12	-4.930998.E-06	-9.238427.E-06
1114	12.13	-4.906641.E-06	-9.192830.E-06
1115	12.14	-4.882424.E-06	-9.147495.E-06
1116	12.15	-4.858346.E-06	-9.102421.E-06
1117	12.16	-4.834407.E-06	-9.057605.E-06
1118	12.17	-4.810605.E-06	-9.013047.E-06
1119	12.18	-4.786940.E-06	-8.968744.E-06
1120	12.19	-4.763410.E-06	-8.924695.E-06
1121	12.20	-4.740015.E-06	-8.880898.E-06
1122	12.21	-4.716755.E-06	-8.837351.E-06
1123	12.22	-4.693627.E-06	-8.794053.E-06
1124	12.23	-4.670631.E-06	-8.751003.E-06
1125	12.24	-4.647767.E-06	-8.708198.E-06
1126	12.25	-4.625033.E-06	-8.665637.E-06
1127	12.26	-4.602429.E-06	-8.623318.E-06
1128	12.27	-4.579953.E-06	-8.581241.E-06
1129	12.28	-4.557606.E-06	-8.539402.E-06
1130	12.29	-4.535386.E-06	-8.497802.E-06
1131	12.30	-4.513291.E-06	-8.456437.E-06
1132	12.31	-4.491323.E-06	-8.415307.E-06
1133	12.32	-4.469479.E-06	-8.374411.E-06
1134	12.33	-4.447759.E-06	-8.333745.E-06
1135	12.34	-4.426162.E-06	-8.293310.E-06
1136	12.35	-4.404687.E-06	-8.253104.E-06
1137	12.36	-4.383333.E-06	-8.213125.E-06
1138	12.37	-4.362100.E-06	-8.173371.E-06
1139	12.38	-4.340988.E-06	-8.133842.E-06
1140	12.39	-4.319994.E-06	-8.094536.E-06
1141	12.40	-4.299118.E-06	-8.055451.E-06
1142	12.41	-4.278361.E-06	-8.016585.E-06
1143	12.42	-4.257719.E-06	-7.977939.E-06
1144	12.43	-4.237195.E-06	-7.939509.E-06
1145	12.44	-4.216785.E-06	-7.901295.E-06
1146	12.45	-4.196490.E-06	-7.863296.E-06
1147	12.46	-4.176309.E-06	-7.825510.E-06
1148	12.47	-4.156241.E-06	-7.787935.E-06
1149	12.48	-4.136285.E-06	-7.750570.E-06
1150	12.49	-4.116441.E-06	-7.713415.E-06
1151	12.50	-4.096708.E-06	-7.676467.E-06
1152	12.51	-4.077086.E-06	-7.639725.E-06
1153	12.52	-4.057572.E-06	-7.603188.E-06
1154	12.53	-4.038168.E-06	-7.566855.E-06
1155	12.54	-4.018872.E-06	-7.530724.E-06
1156	12.55	-3.999683.E-06	-7.494794.E-06
1157	12.56	-3.980602.E-06	-7.459064.E-06
1158	12.57	-3.961626.E-06	-7.423533.E-06
1159	12.58	-3.942756.E-06	-7.388199.E-06
1160	12.59	-3.923990.E-06	-7.353060.E-06
1161	12.60	-3.905329.E-06	-7.318117.E-06
1162	12.61	-3.886771.E-06	-7.283367.E-06
1163	12.62	-3.868316.E-06	-7.248809.E-06
1164	12.63	-3.849963.E-06	-7.214443.E-06
1165	12.64	-3.831711.E-06	-7.180266.E-06
1166	12.65	-3.813561.E-06	-7.146278.E-06
1167	12.66	-3.795510.E-06	-7.112478.E-06
1168	12.67	-3.777559.E-06	-7.078864.E-06
1169	12.68	-3.759708.E-06	-7.045435.E-06
1170	12.69	-3.741954.E-06	-7.012190.E-06
1171	12.70	-3.724298.E-06	-6.979128.E-06
1172	12.71	-3.706740.E-06	-6.946248.E-06
1173	12.72	-3.689278.E-06	-6.913548.E-06
1174	12.73	-3.671911.E-06	-6.881027.E-06
1175	12.74	-3.654640.E-06	-6.848685.E-06
1176	12.75	-3.637464.E-06	-6.816520.E-06
1177	12.76	-3.620382.E-06	-6.784531.E-06
1178	12.77	-3.603393.E-06	-6.752717.E-06
1179	12.78	-3.586497.E-06	-6.721077.E-06
1180	12.79	-3.569694.E-06	-6.689610.E-06
1181	12.80	-3.552982.E-06	-6.658314.E-06
1182	12.81	-3.536362.E-06	-6.627189.E-06
1183	12.82	-3.519832.E-06	-6.596234.E-06
1184	12.83	-3.503392.E-06	-6.565447.E-06
1185	12.84	-3.487042.E-06	-6.534827.E-06
1186	12.85	-3.470781.E-06	-6.504374.E-06
1187	12.86	-3.454608.E-06	-6.474087.E-06
1188	12.87	-3.438523.E-06	-6.443964.E-06
1189	12.88	-3.422525.E-06	-6.414004.E-06
1190	12.89	-3.406614.E-06	-6.384206.E-06
1191	12.90	-3.390790.E-06	-6.354570.E-06
1192	12.91	-3.375051.E-06	-6.325095.E-06
1193	12.92	-3.359397.E-06	-6.295778.E-06
1194	12.93	-3.343828.E-06	-6.266620.E-06
1195	12.94	-3.328342.E-06	-6.237619.E-06
1196	12.95	-3.312941.E-06	-6.208775.E-06
1197	12.96	-3.297623.E-06	-6.180086.E-06
1198	12.97	-3.282387.E-06	-6.151552.E-06
1199	12.98	-3.267233.E-06	-6.123171.E-06
1200	12.99	-3.252161.E-06	-6.094943.E-06
