# DATE: 2024-07-07  UNITS: metal  CONTRIBUTOR: By STUDENT			
# FHEP: Temp 303 [K], mr 1.71428571428571 [g/mol], Sigma 3.195 [A], Epsilon 0.00366325664804247 [eV]			
			
ENTRY			
N 1200 R 1.0 12.99			
			
1	1.00	2.501144.E+04	1.805150.E+05
2	1.01	2.204773.E+04	1.571086.E+05
3	1.02	1.946099.E+04	1.369517.E+05
4	1.03	1.720007.E+04	1.195644.E+05
5	1.04	1.522116.E+04	1.045420.E+05
6	1.05	1.348673.E+04	9.154209.E+04
7	1.06	1.196455.E+04	8.027494.E+04
8	1.07	1.062687.E+04	7.049463.E+04
9	1.08	9.449833.E+03	6.199224.E+04
10	1.09	8.412836.E+03	5.458989.E+04
11	1.10	7.498087.E+03	4.813597.E+04
12	1.11	6.690196.E+03	4.250096.E+04
13	1.12	5.975833.E+03	3.757412.E+04
14	1.13	5.343431.E+03	3.326055.E+04
15	1.14	4.782947.E+03	2.947885.E+04
16	1.15	4.285643.E+03	2.615906.E+04
17	1.16	3.843909.E+03	2.324099.E+04
18	1.17	3.451113.E+03	2.067277.E+04
19	1.18	3.101459.E+03	1.840963.E+04
20	1.19	2.789886.E+03	1.641288.E+04
21	1.20	2.511959.E+03	1.464904.E+04
22	1.21	2.263797.E+03	1.308909.E+04
23	1.22	2.041992.E+03	1.170785.E+04
24	1.23	1.843552.E+03	1.048345.E+04
25	1.24	1.665846.E+03	9.396866.E+03
26	1.25	1.506557.E+03	8.431507.E+03
27	1.26	1.363646.E+03	7.572920.E+03
28	1.27	1.235312.E+03	6.808477.E+03
29	1.28	1.119964.E+03	6.127139.E+03
30	1.29	1.016199.E+03	5.519243.E+03
31	1.30	9.227718.E+02	4.976319.E+03
32	1.31	8.385814.E+02	4.490939.E+03
33	1.32	7.626513.E+02	4.056574.E+03
34	1.33	6.941146.E+02	3.667488.E+03
35	1.34	6.322015.E+02	3.318627.E+03
36	1.35	5.762272.E+02	3.005539.E+03
37	1.36	5.255825.E+02	2.724296.E+03
38	1.37	4.797245.E+02	2.471430.E+03
39	1.38	4.381694.E+02	2.243875.E+03
40	1.39	4.004853.E+02	2.038915.E+03
41	1.40	3.662864.E+02	1.854149.E+03
42	1.41	3.352279.E+02	1.687443.E+03
43	1.42	3.070013.E+02	1.536906.E+03
44	1.43	2.813304.E+02	1.400858.E+03
45	1.44	2.579676.E+02	1.277804.E+03
46	1.45	2.366909.E+02	1.166414.E+03
47	1.46	2.173010.E+02	1.065502.E+03
48	1.47	1.996189.E+02	9.740112.E+02
49	1.48	1.834837.E+02	8.909991.E+02
50	1.49	1.687506.E+02	8.156228.E+02
51	1.50	1.552893.E+02	7.471292.E+02
52	1.51	1.429822.E+02	6.848441.E+02
53	1.52	1.317235.E+02	6.281638.E+02
54	1.53	1.214177.E+02	5.765475.E+02
55	1.54	1.119784.E+02	5.295097.E+02
56	1.55	1.033277.E+02	4.866146.E+02
57	1.56	9.539516.E+01	4.474709.E+02
58	1.57	8.811695.E+01	4.117264.E+02
59	1.58	8.143532.E+01	3.790645.E+02
60	1.59	7.529798.E+01	3.491998.E+02
61	1.60	6.965748.E+01	3.218753.E+02
62	1.61	6.447079.E+01	2.968590.E+02
63	1.62	5.969885.E+01	2.739417.E+02
64	1.63	5.530619.E+01	2.529344.E+02
65	1.64	5.126056.E+01	2.336661.E+02
66	1.65	4.753263.E+01	2.159824.E+02
67	1.66	4.409571.E+01	1.997434.E+02
68	1.67	4.092551.E+01	1.848223.E+02
69	1.68	3.799988.E+01	1.711043.E+02
70	1.69	3.529866.E+01	1.584854.E+02
71	1.70	3.280342.E+01	1.468709.E+02
72	1.71	3.049737.E+01	1.361750.E+02
73	1.72	2.836517.E+01	1.263198.E+02
74	1.73	2.639281.E+01	1.172342.E+02
75	1.74	2.456747.E+01	1.088538.E+02
76	1.75	2.287744.E+01	1.011197.E+02
77	1.76	2.131199.E+01	9.397857.E+01
78	1.77	1.986131.E+01	8.738146.E+01
79	1.78	1.851640.E+01	8.128392.E+01
80	1.79	1.726901.E+01	7.564533.E+01
81	1.80	1.611159.E+01	7.042859.E+01
82	1.81	1.503721.E+01	6.559983.E+01
83	1.82	1.403950.E+01	6.112806.E+01
84	1.83	1.311260.E+01	5.698496.E+01
85	1.84	1.225116.E+01	5.314459.E+01
86	1.85	1.145023.E+01	4.958319.E+01
87	1.86	1.070528.E+01	4.627903.E+01
88	1.87	1.001211.E+01	4.321214.E+01
89	1.88	9.366897.E+00	4.036425.E+01
90	1.89	8.766088.E+00	3.771857.E+01
91	1.90	8.206422.E+00	3.525968.E+01
92	1.91	7.684891.E+00	3.297343.E+01
93	1.92	7.198720.E+00	3.084681.E+01
94	1.93	6.745352.E+00	2.886786.E+01
95	1.94	6.322424.E+00	2.702558.E+01
96	1.95	5.927755.E+00	2.530984.E+01
97	1.96	5.559331.E+00	2.371131.E+01
98	1.97	5.215289.E+00	2.222140.E+01
99	1.98	4.893910.E+00	2.083219.E+01
100	1.99	4.593600.E+00	1.953639.E+01
101	2.00	4.312887.E+00	1.832724.E+01
102	2.01	4.050408.E+00	1.719854.E+01
103	2.02	3.804900.E+00	1.614455.E+01
104	2.03	3.575194.E+00	1.515996.E+01
105	2.04	3.360207.E+00	1.423988.E+01
106	2.05	3.158933.E+00	1.337976.E+01
107	2.06	2.970441.E+00	1.257543.E+01
108	2.07	2.793867.E+00	1.182299.E+01
109	2.08	2.628409.E+00	1.111887.E+01
110	2.09	2.473321.E+00	1.045973.E+01
111	2.10	2.327912.E+00	9.842506.E+00
112	2.11	2.191540.E+00	9.264328.E+00
113	2.12	2.063606.E+00	8.722554.E+00
114	2.13	1.943557.E+00	8.214728.E+00
115	2.14	1.830874.E+00	7.738572.E+00
116	2.15	1.725079.E+00	7.291969.E+00
117	2.16	1.625723.E+00	6.872956.E+00
118	2.17	1.532391.E+00	6.479707.E+00
119	2.18	1.444693.E+00	6.110527.E+00
120	2.19	1.362271.E+00	5.763837.E+00
121	2.20	1.284785.E+00	5.438172.E+00
122	2.21	1.211924.E+00	5.132167.E+00
123	2.22	1.143394.E+00	4.844552.E+00
124	2.23	1.078922.E+00	4.574145.E+00
125	2.24	1.018253.E+00	4.319844.E+00
126	2.25	9.611508.E-01	4.080624.E+00
127	2.26	9.073920.E-01	3.855527.E+00
128	2.27	8.567697.E-01	3.643663.E+00
129	2.28	8.090902.E-01	3.444201.E+00
130	2.29	7.641726.E-01	3.256363.E+00
131	2.30	7.218477.E-01	3.079427.E+00
132	2.31	6.819573.E-01	2.912716.E+00
133	2.32	6.443535.E-01	2.755599.E+00
134	2.33	6.088978.E-01	2.607486.E+00
135	2.34	5.754607.E-01	2.467828.E+00
136	2.35	5.439210.E-01	2.336108.E+00
137	2.36	5.141650.E-01	2.211845.E+00
138	2.37	4.860865.E-01	2.094588.E+00
139	2.38	4.595859.E-01	1.983917.E+00
140	2.39	4.345696.E-01	1.879437.E+00
141	2.40	4.109503.E-01	1.780778.E+00
142	2.41	3.886460.E-01	1.687595.E+00
143	2.42	3.675795.E-01	1.599564.E+00
144	2.43	3.476788.E-01	1.516382.E+00
145	2.44	3.288760.E-01	1.437763.E+00
146	2.45	3.111077.E-01	1.363442.E+00
147	2.46	2.943142.E-01	1.293169.E+00
148	2.47	2.784393.E-01	1.226709.E+00
149	2.48	2.634305.E-01	1.163841.E+00
150	2.49	2.492383.E-01	1.104360.E+00
151	2.50	2.358163.E-01	1.048071.E+00
152	2.51	2.231207.E-01	9.947923.E-01
153	2.52	2.111104.E-01	9.443529.E-01
154	2.53	1.997470.E-01	8.965921.E-01
155	2.54	1.889940.E-01	8.513588.E-01
156	2.55	1.788172.E-01	8.085111.E-01
157	2.56	1.691846.E-01	7.679155.E-01
158	2.57	1.600658.E-01	7.294465.E-01
159	2.58	1.514325.E-01	6.929860.E-01
160	2.59	1.432576.E-01	6.584229.E-01
161	2.60	1.355160.E-01	6.256525.E-01
162	2.61	1.281839.E-01	5.945764.E-01
163	2.62	1.212388.E-01	5.651019.E-01
164	2.63	1.146597.E-01	5.371417.E-01
165	2.64	1.084265.E-01	5.106136.E-01
166	2.65	1.025205.E-01	4.854399.E-01
167	2.66	9.692400.E-02	4.615476.E-01
168	2.67	9.162029.E-02	4.388679.E-01
169	2.68	8.659360.E-02	4.173357.E-01
170	2.69	8.182907.E-02	3.968899.E-01
171	2.70	7.731266.E-02	3.774726.E-01
172	2.71	7.303113.E-02	3.590294.E-01
173	2.72	6.897196.E-02	3.415087.E-01
174	2.73	6.512336.E-02	3.248620.E-01
175	2.74	6.147416.E-02	3.090433.E-01
176	2.75	5.801384.E-02	2.940095.E-01
177	2.76	5.473243.E-02	2.797195.E-01
178	2.77	5.162054.E-02	2.661347.E-01
179	2.78	4.866928.E-02	2.532186.E-01
180	2.79	4.587023.E-02	2.409367.E-01
181	2.80	4.321546.E-02	2.292562.E-01
182	2.81	4.069746.E-02	2.181465.E-01
183	2.82	3.830911.E-02	2.075781.E-01
184	2.83	3.604371.E-02	1.975236.E-01
185	2.84	3.389488.E-02	1.879569.E-01
186	2.85	3.185661.E-02	1.788531.E-01
187	2.86	2.992322.E-02	1.701890.E-01
188	2.87	2.808930.E-02	1.619424.E-01
189	2.88	2.634976.E-02	1.540922.E-01
190	2.89	2.469976.E-02	1.466187.E-01
191	2.90	2.313473.E-02	1.395030.E-01
192	2.91	2.165034.E-02	1.327274.E-01
193	2.92	2.024248.E-02	1.262749.E-01
194	2.93	1.890726.E-02	1.201296.E-01
195	2.94	1.764100.E-02	1.142762.E-01
196	2.95	1.644021.E-02	1.087004.E-01
197	2.96	1.530157.E-02	1.033886.E-01
198	2.97	1.422194.E-02	9.832792.E-02
199	2.98	1.319837.E-02	9.350598.E-02
200	2.99	1.222801.E-02	8.891121.E-02
201	3.00	1.130820.E-02	8.453257.E-02
202	3.01	1.043641.E-02	8.035959.E-02
203	3.02	9.610215.E-03	7.638232.E-02
204	3.03	8.827344.E-03	7.259135.E-02
205	3.04	8.085627.E-03	6.897770.E-02
206	3.05	7.383011.E-03	6.553288.E-02
207	3.06	6.717542.E-03	6.224880.E-02
208	3.07	6.087371.E-03	5.911780.E-02
209	3.08	5.490738.E-03	5.613259.E-02
210	3.09	4.925976.E-03	5.328624.E-02
211	3.10	4.391499.E-03	5.057217.E-02
212	3.11	3.885802.E-03	4.798412.E-02
213	3.12	3.407458.E-03	4.551616.E-02
214	3.13	2.955109.E-03	4.316262.E-02
215	3.14	2.527464.E-03	4.091813.E-02
216	3.15	2.123300.E-03	3.877759.E-02
217	3.16	1.741453.E-03	3.673613.E-02
218	3.17	1.380816.E-03	3.478912.E-02
219	3.18	1.040340.E-03	3.293216.E-02
220	3.19	7.190254.E-04	3.116108.E-02
221	3.20	4.159229.E-04	2.947189.E-02
222	3.21	1.301304.E-04	2.786079.E-02
223	3.22	-1.392097.E-04	2.632418.E-02
224	3.23	-3.929130.E-04	2.485861.E-02
225	3.24	-6.317548.E-04	2.346083.E-02
226	3.25	-8.564722.E-04	2.212771.E-02
227	3.26	-1.067766.E-03	2.085629.E-02
228	3.27	-1.266304.E-03	1.964374.E-02
229	3.28	-1.452720.E-03	1.848737.E-02
230	3.29	-1.627616.E-03	1.738461.E-02
231	3.30	-1.791567.E-03	1.633303.E-02
232	3.31	-1.945118.E-03	1.533029.E-02
233	3.32	-2.088789.E-03	1.437417.E-02
234	3.33	-2.223074.E-03	1.346257.E-02
235	3.34	-2.348442.E-03	1.259345.E-02
236	3.35	-2.465341.E-03	1.176491.E-02
237	3.36	-2.574197.E-03	1.097510.E-02
238	3.37	-2.675415.E-03	1.022228.E-02
239	3.38	-2.769380.E-03	9.504778.E-03
240	3.39	-2.856459.E-03	8.821011.E-03
241	3.40	-2.937001.E-03	8.169458.E-03
242	3.41	-3.011339.E-03	7.548673.E-03
243	3.42	-3.079788.E-03	6.957275.E-03
244	3.43	-3.142651.E-03	6.393947.E-03
245	3.44	-3.200213.E-03	5.857433.E-03
246	3.45	-3.252747.E-03	5.346531.E-03
247	3.46	-3.300513.E-03	4.860098.E-03
248	3.47	-3.343759.E-03	4.397041.E-03
249	3.48	-3.382720.E-03	3.956315.E-03
250	3.49	-3.417620.E-03	3.536925.E-03
251	3.50	-3.448671.E-03	3.137919.E-03
252	3.51	-3.476079.E-03	2.758389.E-03
253	3.52	-3.500035.E-03	2.397468.E-03
254	3.53	-3.520723.E-03	2.054327.E-03
255	3.54	-3.538320.E-03	1.728176.E-03
256	3.55	-3.552992.E-03	1.418257.E-03
257	3.56	-3.564898.E-03	1.123850.E-03
258	3.57	-3.574189.E-03	8.442637.E-04
259	3.58	-3.581009.E-03	5.788398.E-04
260	3.59	-3.585495.E-03	3.269484.E-04
261	3.60	-3.587777.E-03	8.798743.E-05
262	3.61	-3.587981.E-03	-1.386181.E-04
263	3.62	-3.586223.E-03	-3.534179.E-04
264	3.63	-3.582617.E-03	-5.569373.E-04
265	3.64	-3.577270.E-03	-7.496785.E-04
266	3.65	-3.570284.E-03	-9.321217.E-04
267	3.66	-3.561755.E-03	-1.104726.E-03
268	3.67	-3.551776.E-03	-1.267929.E-03
269	3.68	-3.540435.E-03	-1.422152.E-03
270	3.69	-3.527815.E-03	-1.567795.E-03
271	3.70	-3.513997.E-03	-1.705242.E-03
272	3.71	-3.499055.E-03	-1.834859.E-03
273	3.72	-3.483062.E-03	-1.956998.E-03
274	3.73	-3.466086.E-03	-2.071993.E-03
275	3.74	-3.448192.E-03	-2.180167.E-03
276	3.75	-3.429442.E-03	-2.281824.E-03
277	3.76	-3.409896.E-03	-2.377260.E-03
278	3.77	-3.389608.E-03	-2.466754.E-03
279	3.78	-3.368633.E-03	-2.550576.E-03
280	3.79	-3.347021.E-03	-2.628983.E-03
281	3.80	-3.324819.E-03	-2.702219.E-03
282	3.81	-3.302074.E-03	-2.770521.E-03
283	3.82	-3.278830.E-03	-2.834113.E-03
284	3.83	-3.255126.E-03	-2.893211.E-03
285	3.84	-3.231002.E-03	-2.948020.E-03
286	3.85	-3.206497.E-03	-2.998738.E-03
287	3.86	-3.181643.E-03	-3.045553.E-03
288	3.87	-3.156476.E-03	-3.088646.E-03
289	3.88	-3.131027.E-03	-3.128189.E-03
290	3.89	-3.105326.E-03	-3.164348.E-03
291	3.90	-3.079402.E-03	-3.197280.E-03
292	3.91	-3.053281.E-03	-3.227138.E-03
293	3.92	-3.026989.E-03	-3.254065.E-03
294	3.93	-3.000551.E-03	-3.278200.E-03
295	3.94	-2.973990.E-03	-3.299677.E-03
296	3.95	-2.947327.E-03	-3.318621.E-03
297	3.96	-2.920583.E-03	-3.335154.E-03
298	3.97	-2.893778.E-03	-3.349393.E-03
299	3.98	-2.866930.E-03	-3.361449.E-03
300	3.99	-2.840056.E-03	-3.371428.E-03
301	4.00	-2.813173.E-03	-3.379431.E-03
302	4.01	-2.786296.E-03	-3.385557.E-03
303	4.02	-2.759441.E-03	-3.389899.E-03
304	4.03	-2.732620.E-03	-3.392545.E-03
305	4.04	-2.705847.E-03	-3.393582.E-03
306	4.05	-2.679134.E-03	-3.393091.E-03
307	4.06	-2.652493.E-03	-3.391150.E-03
308	4.07	-2.625935.E-03	-3.387834.E-03
309	4.08	-2.599469.E-03	-3.383215.E-03
310	4.09	-2.573106.E-03	-3.377361.E-03
311	4.10	-2.546854.E-03	-3.370337.E-03
312	4.11	-2.520722.E-03	-3.362206.E-03
313	4.12	-2.494717.E-03	-3.353029.E-03
314	4.13	-2.468848.E-03	-3.342862.E-03
315	4.14	-2.443120.E-03	-3.331761.E-03
316	4.15	-2.417540.E-03	-3.319777.E-03
317	4.16	-2.392115.E-03	-3.306961.E-03
318	4.17	-2.366850.E-03	-3.293362.E-03
319	4.18	-2.341749.E-03	-3.279024.E-03
320	4.19	-2.316818.E-03	-3.263992.E-03
321	4.20	-2.292061.E-03	-3.248308.E-03
322	4.21	-2.267482.E-03	-3.232011.E-03
323	4.22	-2.243085.E-03	-3.215141.E-03
324	4.23	-2.218873.E-03	-3.197733.E-03
325	4.24	-2.194850.E-03	-3.179823.E-03
326	4.25	-2.171018.E-03	-3.161444.E-03
327	4.26	-2.147379.E-03	-3.142628.E-03
328	4.27	-2.123937.E-03	-3.123406.E-03
329	4.28	-2.100693.E-03	-3.103807.E-03
330	4.29	-2.077649.E-03	-3.083858.E-03
331	4.30	-2.054806.E-03	-3.063586.E-03
332	4.31	-2.032166.E-03	-3.043017.E-03
333	4.32	-2.009731.E-03	-3.022175.E-03
334	4.33	-1.987501.E-03	-3.001083.E-03
335	4.34	-1.965477.E-03	-2.979763.E-03
336	4.35	-1.943660.E-03	-2.958235.E-03
337	4.36	-1.922051.E-03	-2.936521.E-03
338	4.37	-1.900649.E-03	-2.914639.E-03
339	4.38	-1.879455.E-03	-2.892608.E-03
340	4.39	-1.858470.E-03	-2.870445.E-03
341	4.40	-1.837692.E-03	-2.848166.E-03
342	4.41	-1.817123.E-03	-2.825787.E-03
343	4.42	-1.796761.E-03	-2.803323.E-03
344	4.43	-1.776607.E-03	-2.780789.E-03
345	4.44	-1.756660.E-03	-2.758199.E-03
346	4.45	-1.736920.E-03	-2.735564.E-03
347	4.46	-1.717385.E-03	-2.712898.E-03
348	4.47	-1.698056.E-03	-2.690213.E-03
349	4.48	-1.678931.E-03	-2.667518.E-03
350	4.49	-1.660009.E-03	-2.644826.E-03
351	4.50	-1.641290.E-03	-2.622145.E-03
352	4.51	-1.622773.E-03	-2.599486.E-03
353	4.52	-1.604456.E-03	-2.576858.E-03
354	4.53	-1.586339.E-03	-2.554269.E-03
355	4.54	-1.568420.E-03	-2.531727.E-03
356	4.55	-1.550698.E-03	-2.509239.E-03
357	4.56	-1.533172.E-03	-2.486815.E-03
358	4.57	-1.515840.E-03	-2.464459.E-03
359	4.58	-1.498702.E-03	-2.442179.E-03
360	4.59	-1.481755.E-03	-2.419981.E-03
361	4.60	-1.464999.E-03	-2.397870.E-03
362	4.61	-1.448432.E-03	-2.375852.E-03
363	4.62	-1.432053.E-03	-2.353933.E-03
364	4.63	-1.415859.E-03	-2.332116.E-03
365	4.64	-1.399851.E-03	-2.310407.E-03
366	4.65	-1.384025.E-03	-2.288811.E-03
367	4.66	-1.368381.E-03	-2.267330.E-03
368	4.67	-1.352916.E-03	-2.245968.E-03
369	4.68	-1.337630.E-03	-2.224730.E-03
370	4.69	-1.322521.E-03	-2.203619.E-03
371	4.70	-1.307587.E-03	-2.182637.E-03
372	4.71	-1.292826.E-03	-2.161787.E-03
373	4.72	-1.278237.E-03	-2.141072.E-03
374	4.73	-1.263818.E-03	-2.120495.E-03
375	4.74	-1.249568.E-03	-2.100058.E-03
376	4.75	-1.235485.E-03	-2.079763.E-03
377	4.76	-1.221567.E-03	-2.059611.E-03
378	4.77	-1.207813.E-03	-2.039605.E-03
379	4.78	-1.194221.E-03	-2.019746.E-03
380	4.79	-1.180789.E-03	-2.000036.E-03
381	4.80	-1.167516.E-03	-1.980475.E-03
382	4.81	-1.154400.E-03	-1.961066.E-03
383	4.82	-1.141439.E-03	-1.941809.E-03
384	4.83	-1.128632.E-03	-1.922705.E-03
385	4.84	-1.115978.E-03	-1.903755.E-03
386	4.85	-1.103473.E-03	-1.884959.E-03
387	4.86	-1.091118.E-03	-1.866319.E-03
388	4.87	-1.078909.E-03	-1.847835.E-03
389	4.88	-1.066847.E-03	-1.829506.E-03
390	4.89	-1.054928.E-03	-1.811334.E-03
391	4.90	-1.043151.E-03	-1.793319.E-03
392	4.91	-1.031516.E-03	-1.775461.E-03
393	4.92	-1.020019.E-03	-1.757759.E-03
394	4.93	-1.008660.E-03	-1.740214.E-03
395	4.94	-9.974376.E-04	-1.722827.E-03
396	4.95	-9.863493.E-04	-1.705595.E-03
397	4.96	-9.753939.E-04	-1.688520.E-03
398	4.97	-9.645700.E-04	-1.671602.E-03
399	4.98	-9.538759.E-04	-1.654839.E-03
400	4.99	-9.433103.E-04	-1.638231.E-03
401	5.00	-9.328715.E-04	-1.621779.E-03
402	5.01	-9.225580.E-04	-1.605481.E-03
403	5.02	-9.123685.E-04	-1.589337.E-03
404	5.03	-9.023014.E-04	-1.573346.E-03
405	5.04	-8.923553.E-04	-1.557508.E-03
406	5.05	-8.825288.E-04	-1.541822.E-03
407	5.06	-8.728203.E-04	-1.526288.E-03
408	5.07	-8.632286.E-04	-1.510904.E-03
409	5.08	-8.537521.E-04	-1.495670.E-03
410	5.09	-8.443895.E-04	-1.480586.E-03
411	5.10	-8.351395.E-04	-1.465650.E-03
412	5.11	-8.260007.E-04	-1.450861.E-03
413	5.12	-8.169716.E-04	-1.436218.E-03
414	5.13	-8.080510.E-04	-1.421722.E-03
415	5.14	-7.992376.E-04	-1.407370.E-03
416	5.15	-7.905301.E-04	-1.393162.E-03
417	5.16	-7.819270.E-04	-1.379097.E-03
418	5.17	-7.734273.E-04	-1.365174.E-03
419	5.18	-7.650295.E-04	-1.351392.E-03
420	5.19	-7.567325.E-04	-1.337750.E-03
421	5.20	-7.485349.E-04	-1.324246.E-03
422	5.21	-7.404356.E-04	-1.310881.E-03
423	5.22	-7.324334.E-04	-1.297652.E-03
424	5.23	-7.245270.E-04	-1.284559.E-03
425	5.24	-7.167153.E-04	-1.271601.E-03
426	5.25	-7.089970.E-04	-1.258776.E-03
427	5.26	-7.013711.E-04	-1.246084.E-03
428	5.27	-6.938363.E-04	-1.233524.E-03
429	5.28	-6.863915.E-04	-1.221094.E-03
430	5.29	-6.790357.E-04	-1.208793.E-03
431	5.30	-6.717676.E-04	-1.196620.E-03
432	5.31	-6.645862.E-04	-1.184574.E-03
433	5.32	-6.574904.E-04	-1.172655.E-03
434	5.33	-6.504792.E-04	-1.160860.E-03
435	5.34	-6.435514.E-04	-1.149189.E-03
436	5.35	-6.367061.E-04	-1.137641.E-03
437	5.36	-6.299421.E-04	-1.126214.E-03
438	5.37	-6.232585.E-04	-1.114908.E-03
439	5.38	-6.166542.E-04	-1.103720.E-03
440	5.39	-6.101283.E-04	-1.092652.E-03
441	5.40	-6.036798.E-04	-1.081700.E-03
442	5.41	-5.973077.E-04	-1.070864.E-03
443	5.42	-5.910110.E-04	-1.060143.E-03
444	5.43	-5.847887.E-04	-1.049536.E-03
445	5.44	-5.786400.E-04	-1.039041.E-03
446	5.45	-5.725640.E-04	-1.028658.E-03
447	5.46	-5.665596.E-04	-1.018386.E-03
448	5.47	-5.606260.E-04	-1.008223.E-03
449	5.48	-5.547623.E-04	-9.981682.E-04
450	5.49	-5.489676.E-04	-9.882207.E-04
451	5.50	-5.432411.E-04	-9.783794.E-04
452	5.51	-5.375819.E-04	-9.686433.E-04
453	5.52	-5.319890.E-04	-9.590111.E-04
454	5.53	-5.264618.E-04	-9.494820.E-04
455	5.54	-5.209994.E-04	-9.400547.E-04
456	5.55	-5.156008.E-04	-9.307284.E-04
457	5.56	-5.102655.E-04	-9.215019.E-04
458	5.57	-5.049925.E-04	-9.123743.E-04
459	5.58	-4.997810.E-04	-9.033444.E-04
460	5.59	-4.946303.E-04	-8.944114.E-04
461	5.60	-4.895396.E-04	-8.855741.E-04
462	5.61	-4.845082.E-04	-8.768315.E-04
463	5.62	-4.795353.E-04	-8.681828.E-04
464	5.63	-4.746201.E-04	-8.596268.E-04
465	5.64	-4.697620.E-04	-8.511626.E-04
466	5.65	-4.649602.E-04	-8.427892.E-04
467	5.66	-4.602141.E-04	-8.345057.E-04
468	5.67	-4.555228.E-04	-8.263111.E-04
469	5.68	-4.508857.E-04	-8.182045.E-04
470	5.69	-4.463022.E-04	-8.101848.E-04
471	5.70	-4.417716.E-04	-8.022512.E-04
472	5.71	-4.372931.E-04	-7.944028.E-04
473	5.72	-4.328662.E-04	-7.866385.E-04
474	5.73	-4.284902.E-04	-7.789576.E-04
475	5.74	-4.241645.E-04	-7.713590.E-04
476	5.75	-4.198883.E-04	-7.638420.E-04
477	5.76	-4.156612.E-04	-7.564056.E-04
478	5.77	-4.114825.E-04	-7.490489.E-04
479	5.78	-4.073515.E-04	-7.417711.E-04
480	5.79	-4.032677.E-04	-7.345713.E-04
481	5.80	-3.992305.E-04	-7.274486.E-04
482	5.81	-3.952393.E-04	-7.204022.E-04
483	5.82	-3.912936.E-04	-7.134313.E-04
484	5.83	-3.873927.E-04	-7.065350.E-04
485	5.84	-3.835361.E-04	-6.997125.E-04
486	5.85	-3.797233.E-04	-6.929629.E-04
487	5.86	-3.759536.E-04	-6.862856.E-04
488	5.87	-3.722267.E-04	-6.796796.E-04
489	5.88	-3.685419.E-04	-6.731442.E-04
490	5.89	-3.648986.E-04	-6.666785.E-04
491	5.90	-3.612965.E-04	-6.602819.E-04
492	5.91	-3.577350.E-04	-6.539536.E-04
493	5.92	-3.542135.E-04	-6.476928.E-04
494	5.93	-3.507316.E-04	-6.414986.E-04
495	5.94	-3.472888.E-04	-6.353705.E-04
496	5.95	-3.438846.E-04	-6.293076.E-04
497	5.96	-3.405185.E-04	-6.233093.E-04
498	5.97	-3.371901.E-04	-6.173747.E-04
499	5.98	-3.338989.E-04	-6.115033.E-04
500	5.99	-3.306444.E-04	-6.056942.E-04
501	6.00	-3.274261.E-04	-5.999468.E-04
502	6.01	-3.242437.E-04	-5.942604.E-04
503	6.02	-3.210967.E-04	-5.886343.E-04
504	6.03	-3.179847.E-04	-5.830678.E-04
505	6.04	-3.149071.E-04	-5.775603.E-04
506	6.05	-3.118637.E-04	-5.721111.E-04
507	6.06	-3.088539.E-04	-5.667195.E-04
508	6.07	-3.058774.E-04	-5.613849.E-04
509	6.08	-3.029337.E-04	-5.561066.E-04
510	6.09	-3.000225.E-04	-5.508841.E-04
511	6.10	-2.971434.E-04	-5.457166.E-04
512	6.11	-2.942959.E-04	-5.406036.E-04
513	6.12	-2.914797.E-04	-5.355444.E-04
514	6.13	-2.886944.E-04	-5.305385.E-04
515	6.14	-2.859396.E-04	-5.255853.E-04
516	6.15	-2.832149.E-04	-5.206841.E-04
517	6.16	-2.805201.E-04	-5.158343.E-04
518	6.17	-2.778546.E-04	-5.110355.E-04
519	6.18	-2.752182.E-04	-5.062869.E-04
520	6.19	-2.726106.E-04	-5.015881.E-04
521	6.20	-2.700312.E-04	-4.969385.E-04
522	6.21	-2.674799.E-04	-4.923375.E-04
523	6.22	-2.649563.E-04	-4.877846.E-04
524	6.23	-2.624600.E-04	-4.832792.E-04
525	6.24	-2.599907.E-04	-4.788208.E-04
526	6.25	-2.575481.E-04	-4.744089.E-04
527	6.26	-2.551319.E-04	-4.700429.E-04
528	6.27	-2.527417.E-04	-4.657223.E-04
529	6.28	-2.503772.E-04	-4.614467.E-04
530	6.29	-2.480382.E-04	-4.572155.E-04
531	6.30	-2.457243.E-04	-4.530282.E-04
532	6.31	-2.434352.E-04	-4.488843.E-04
533	6.32	-2.411706.E-04	-4.447834.E-04
534	6.33	-2.389303.E-04	-4.407248.E-04
535	6.34	-2.367138.E-04	-4.367083.E-04
536	6.35	-2.345211.E-04	-4.327332.E-04
537	6.36	-2.323517.E-04	-4.287992.E-04
538	6.37	-2.302054.E-04	-4.249057.E-04
539	6.38	-2.280819.E-04	-4.210524.E-04
540	6.39	-2.259809.E-04	-4.172387.E-04
541	6.40	-2.239022.E-04	-4.134642.E-04
542	6.41	-2.218456.E-04	-4.097285.E-04
543	6.42	-2.198107.E-04	-4.060311.E-04
544	6.43	-2.177972.E-04	-4.023717.E-04
545	6.44	-2.158050.E-04	-3.987497.E-04
546	6.45	-2.138339.E-04	-3.951648.E-04
547	6.46	-2.118834.E-04	-3.916165.E-04
548	6.47	-2.099534.E-04	-3.881045.E-04
549	6.48	-2.080437.E-04	-3.846283.E-04
550	6.49	-2.061540.E-04	-3.811876.E-04
551	6.50	-2.042841.E-04	-3.777819.E-04
552	6.51	-2.024337.E-04	-3.744108.E-04
553	6.52	-2.006027.E-04	-3.710740.E-04
554	6.53	-1.987907.E-04	-3.677710.E-04
555	6.54	-1.969976.E-04	-3.645016.E-04
556	6.55	-1.952232.E-04	-3.612653.E-04
557	6.56	-1.934672.E-04	-3.580617.E-04
558	6.57	-1.917294.E-04	-3.548906.E-04
559	6.58	-1.900096.E-04	-3.517514.E-04
560	6.59	-1.883076.E-04	-3.486439.E-04
561	6.60	-1.866232.E-04	-3.455678.E-04
562	6.61	-1.849562.E-04	-3.425226.E-04
563	6.62	-1.833063.E-04	-3.395081.E-04
564	6.63	-1.816734.E-04	-3.365238.E-04
565	6.64	-1.800574.E-04	-3.335695.E-04
566	6.65	-1.784579.E-04	-3.306449.E-04
567	6.66	-1.768748.E-04	-3.277495.E-04
568	6.67	-1.753079.E-04	-3.248831.E-04
569	6.68	-1.737571.E-04	-3.220453.E-04
570	6.69	-1.722220.E-04	-3.192359.E-04
571	6.70	-1.707027.E-04	-3.164545.E-04
572	6.71	-1.691988.E-04	-3.137008.E-04
573	6.72	-1.677102.E-04	-3.109745.E-04
574	6.73	-1.662368.E-04	-3.082753.E-04
575	6.74	-1.647783.E-04	-3.056029.E-04
576	6.75	-1.633345.E-04	-3.029570.E-04
577	6.76	-1.619054.E-04	-3.003374.E-04
578	6.77	-1.604908.E-04	-2.977437.E-04
579	6.78	-1.590904.E-04	-2.951756.E-04
580	6.79	-1.577041.E-04	-2.926329.E-04
581	6.80	-1.563318.E-04	-2.901153.E-04
582	6.81	-1.549733.E-04	-2.876224.E-04
583	6.82	-1.536285.E-04	-2.851542.E-04
584	6.83	-1.522971.E-04	-2.827102.E-04
585	6.84	-1.509791.E-04	-2.802902.E-04
586	6.85	-1.496743.E-04	-2.778940.E-04
587	6.86	-1.483824.E-04	-2.755212.E-04
588	6.87	-1.471035.E-04	-2.731717.E-04
589	6.88	-1.458374.E-04	-2.708451.E-04
590	6.89	-1.445838.E-04	-2.685413.E-04
591	6.90	-1.433427.E-04	-2.662600.E-04
592	6.91	-1.421139.E-04	-2.640009.E-04
593	6.92	-1.408973.E-04	-2.617638.E-04
594	6.93	-1.396928.E-04	-2.595484.E-04
595	6.94	-1.385001.E-04	-2.573546.E-04
596	6.95	-1.373193.E-04	-2.551821.E-04
597	6.96	-1.361500.E-04	-2.530306.E-04
598	6.97	-1.349923.E-04	-2.508999.E-04
599	6.98	-1.338460.E-04	-2.487899.E-04
600	6.99	-1.327110.E-04	-2.467002.E-04
601	7.00	-1.315871.E-04	-2.446307.E-04
602	7.01	-1.304742.E-04	-2.425812.E-04
603	7.02	-1.293722.E-04	-2.405514.E-04
604	7.03	-1.282810.E-04	-2.385411.E-04
605	7.04	-1.272004.E-04	-2.365501.E-04
606	7.05	-1.261304.E-04	-2.345782.E-04
607	7.06	-1.250708.E-04	-2.326252.E-04
608	7.07	-1.240215.E-04	-2.306909.E-04
609	7.08	-1.229824.E-04	-2.287752.E-04
610	7.09	-1.219533.E-04	-2.268777.E-04
611	7.10	-1.209343.E-04	-2.249983.E-04
612	7.11	-1.199251.E-04	-2.231368.E-04
613	7.12	-1.189256.E-04	-2.212930.E-04
614	7.13	-1.179358.E-04	-2.194668.E-04
615	7.14	-1.169556.E-04	-2.176579.E-04
616	7.15	-1.159847.E-04	-2.158662.E-04
617	7.16	-1.150232.E-04	-2.140915.E-04
618	7.17	-1.140710.E-04	-2.123335.E-04
619	7.18	-1.131279.E-04	-2.105922.E-04
620	7.19	-1.121938.E-04	-2.088673.E-04
621	7.20	-1.112686.E-04	-2.071587.E-04
622	7.21	-1.103523.E-04	-2.054662.E-04
623	7.22	-1.094447.E-04	-2.037896.E-04
624	7.23	-1.085458.E-04	-2.021287.E-04
625	7.24	-1.076554.E-04	-2.004835.E-04
626	7.25	-1.067735.E-04	-1.988537.E-04
627	7.26	-1.059000.E-04	-1.972392.E-04
628	7.27	-1.050347.E-04	-1.956397.E-04
629	7.28	-1.041777.E-04	-1.940552.E-04
630	7.29	-1.033287.E-04	-1.924855.E-04
631	7.30	-1.024878.E-04	-1.909305.E-04
632	7.31	-1.016548.E-04	-1.893899.E-04
633	7.32	-1.008296.E-04	-1.878637.E-04
634	7.33	-1.000123.E-04	-1.863516.E-04
635	7.34	-9.920255.E-05	-1.848536.E-04
636	7.35	-9.840044.E-05	-1.833695.E-04
637	7.36	-9.760586.E-05	-1.818991.E-04
638	7.37	-9.681871.E-05	-1.804423.E-04
639	7.38	-9.603893.E-05	-1.789990.E-04
640	7.39	-9.526642.E-05	-1.775690.E-04
641	7.40	-9.450112.E-05	-1.761521.E-04
642	7.41	-9.374296.E-05	-1.747483.E-04
643	7.42	-9.299184.E-05	-1.733575.E-04
644	7.43	-9.224771.E-05	-1.719794.E-04
645	7.44	-9.151048.E-05	-1.706139.E-04
646	7.45	-9.078008.E-05	-1.692610.E-04
647	7.46	-9.005645.E-05	-1.679204.E-04
648	7.47	-8.933951.E-05	-1.665921.E-04
649	7.48	-8.862919.E-05	-1.652760.E-04
650	7.49	-8.792542.E-05	-1.639718.E-04
651	7.50	-8.722813.E-05	-1.626795.E-04
652	7.51	-8.653726.E-05	-1.613990.E-04
653	7.52	-8.585274.E-05	-1.601302.E-04
654	7.53	-8.517450.E-05	-1.588728.E-04
655	7.54	-8.450247.E-05	-1.576269.E-04
656	7.55	-8.383660.E-05	-1.563922.E-04
657	7.56	-8.317682.E-05	-1.551687.E-04
658	7.57	-8.252306.E-05	-1.539563.E-04
659	7.58	-8.187526.E-05	-1.527548.E-04
660	7.59	-8.123337.E-05	-1.515642.E-04
661	7.60	-8.059731.E-05	-1.503843.E-04
662	7.61	-7.996704.E-05	-1.492150.E-04
663	7.62	-7.934248.E-05	-1.480562.E-04
664	7.63	-7.872359.E-05	-1.469078.E-04
665	7.64	-7.811030.E-05	-1.457697.E-04
666	7.65	-7.750255.E-05	-1.446418.E-04
667	7.66	-7.690030.E-05	-1.435239.E-04
668	7.67	-7.630347.E-05	-1.424161.E-04
669	7.68	-7.571203.E-05	-1.413182.E-04
670	7.69	-7.512590.E-05	-1.402300.E-04
671	7.70	-7.454504.E-05	-1.391516.E-04
672	7.71	-7.396940.E-05	-1.380827.E-04
673	7.72	-7.339892.E-05	-1.370233.E-04
674	7.73	-7.283354.E-05	-1.359734.E-04
675	7.74	-7.227322.E-05	-1.349327.E-04
676	7.75	-7.171791.E-05	-1.339012.E-04
677	7.76	-7.116755.E-05	-1.328789.E-04
678	7.77	-7.062209.E-05	-1.318656.E-04
679	7.78	-7.008149.E-05	-1.308612.E-04
680	7.79	-6.954570.E-05	-1.298657.E-04
681	7.80	-6.901466.E-05	-1.288790.E-04
682	7.81	-6.848833.E-05	-1.279009.E-04
683	7.82	-6.796666.E-05	-1.269314.E-04
684	7.83	-6.744960.E-05	-1.259705.E-04
685	7.84	-6.693712.E-05	-1.250179.E-04
686	7.85	-6.642915.E-05	-1.240737.E-04
687	7.86	-6.592566.E-05	-1.231377.E-04
688	7.87	-6.542661.E-05	-1.222099.E-04
689	7.88	-6.493194.E-05	-1.212902.E-04
690	7.89	-6.444162.E-05	-1.203785.E-04
691	7.90	-6.395560.E-05	-1.194748.E-04
692	7.91	-6.347384.E-05	-1.185789.E-04
693	7.92	-6.299629.E-05	-1.176908.E-04
694	7.93	-6.252291.E-05	-1.168104.E-04
695	7.94	-6.205367.E-05	-1.159376.E-04
696	7.95	-6.158852.E-05	-1.150723.E-04
697	7.96	-6.112742.E-05	-1.142146.E-04
698	7.97	-6.067033.E-05	-1.133642.E-04
699	7.98	-6.021721.E-05	-1.125212.E-04
700	7.99	-5.976802.E-05	-1.116854.E-04
701	8.00	-5.932273.E-05	-1.108569.E-04
702	8.01	-5.888129.E-05	-1.100354.E-04
703	8.02	-5.844366.E-05	-1.092210.E-04
704	8.03	-5.800982.E-05	-1.084136.E-04
705	8.04	-5.757972.E-05	-1.076131.E-04
706	8.05	-5.715332.E-05	-1.068195.E-04
707	8.06	-5.673059.E-05	-1.060326.E-04
708	8.07	-5.631150.E-05	-1.052525.E-04
709	8.08	-5.589600.E-05	-1.044790.E-04
710	8.09	-5.548407.E-05	-1.037120.E-04
711	8.10	-5.507567.E-05	-1.029517.E-04
712	8.11	-5.467075.E-05	-1.021977.E-04
713	8.12	-5.426930.E-05	-1.014502.E-04
714	8.13	-5.387128.E-05	-1.007090.E-04
715	8.14	-5.347664.E-05	-9.997409.E-05
716	8.15	-5.308537.E-05	-9.924540.E-05
717	8.16	-5.269742.E-05	-9.852285.E-05
718	8.17	-5.231277.E-05	-9.780641.E-05
719	8.18	-5.193139.E-05	-9.709601.E-05
720	8.19	-5.155323.E-05	-9.639159.E-05
721	8.20	-5.117828.E-05	-9.569309.E-05
722	8.21	-5.080649.E-05	-9.500046.E-05
723	8.22	-5.043785.E-05	-9.431365.E-05
724	8.23	-5.007231.E-05	-9.363259.E-05
725	8.24	-4.970985.E-05	-9.295723.E-05
726	8.25	-4.935045.E-05	-9.228753.E-05
727	8.26	-4.899406.E-05	-9.162342.E-05
728	8.27	-4.864067.E-05	-9.096485.E-05
729	8.28	-4.829024.E-05	-9.031177.E-05
730	8.29	-4.794274.E-05	-8.966413.E-05
731	8.30	-4.759815.E-05	-8.902187.E-05
732	8.31	-4.725644.E-05	-8.838495.E-05
733	8.32	-4.691759.E-05	-8.775332.E-05
734	8.33	-4.658156.E-05	-8.712692.E-05
735	8.34	-4.624832.E-05	-8.650571.E-05
736	8.35	-4.591786.E-05	-8.588964.E-05
737	8.36	-4.559015.E-05	-8.527865.E-05
738	8.37	-4.526515.E-05	-8.467271.E-05
739	8.38	-4.494285.E-05	-8.407177.E-05
740	8.39	-4.462321.E-05	-8.347577.E-05
741	8.40	-4.430622.E-05	-8.288468.E-05
742	8.41	-4.399185.E-05	-8.229844.E-05
743	8.42	-4.368007.E-05	-8.171701.E-05
744	8.43	-4.337086.E-05	-8.114035.E-05
745	8.44	-4.306420.E-05	-8.056841.E-05
746	8.45	-4.276005.E-05	-8.000115.E-05
747	8.46	-4.245841.E-05	-7.943852.E-05
748	8.47	-4.215924.E-05	-7.888049.E-05
749	8.48	-4.186252.E-05	-7.832700.E-05
750	8.49	-4.156823.E-05	-7.777802.E-05
751	8.50	-4.127635.E-05	-7.723351.E-05
752	8.51	-4.098685.E-05	-7.669342.E-05
753	8.52	-4.069971.E-05	-7.615772.E-05
754	8.53	-4.041491.E-05	-7.562636.E-05
755	8.54	-4.013243.E-05	-7.509930.E-05
756	8.55	-3.985225.E-05	-7.457651.E-05
757	8.56	-3.957434.E-05	-7.405794.E-05
758	8.57	-3.929868.E-05	-7.354355.E-05
759	8.58	-3.902526.E-05	-7.303332.E-05
760	8.59	-3.875405.E-05	-7.252719.E-05
761	8.60	-3.848504.E-05	-7.202514.E-05
762	8.61	-3.821819.E-05	-7.152712.E-05
763	8.62	-3.795350.E-05	-7.103310.E-05
764	8.63	-3.769094.E-05	-7.054304.E-05
765	8.64	-3.743049.E-05	-7.005690.E-05
766	8.65	-3.717214.E-05	-6.957466.E-05
767	8.66	-3.691586.E-05	-6.909627.E-05
768	8.67	-3.666164.E-05	-6.862170.E-05
769	8.68	-3.640945.E-05	-6.815091.E-05
770	8.69	-3.615928.E-05	-6.768388.E-05
771	8.70	-3.591111.E-05	-6.722056.E-05
772	8.71	-3.566492.E-05	-6.676093.E-05
773	8.72	-3.542070.E-05	-6.630494.E-05
774	8.73	-3.517842.E-05	-6.585258.E-05
775	8.74	-3.493807.E-05	-6.540379.E-05
776	8.75	-3.469963.E-05	-6.495856.E-05
777	8.76	-3.446308.E-05	-6.451685.E-05
778	8.77	-3.422841.E-05	-6.407863.E-05
779	8.78	-3.399560.E-05	-6.364386.E-05
780	8.79	-3.376463.E-05	-6.321252.E-05
781	8.80	-3.353548.E-05	-6.278458.E-05
782	8.81	-3.330815.E-05	-6.236000.E-05
783	8.82	-3.308261.E-05	-6.193876.E-05
784	8.83	-3.285884.E-05	-6.152082.E-05
785	8.84	-3.263684.E-05	-6.110616.E-05
786	8.85	-3.241658.E-05	-6.069475.E-05
787	8.86	-3.219805.E-05	-6.028655.E-05
788	8.87	-3.198124.E-05	-5.988154.E-05
789	8.88	-3.176612.E-05	-5.947970.E-05
790	8.89	-3.155269.E-05	-5.908099.E-05
791	8.90	-3.134093.E-05	-5.868538.E-05
792	8.91	-3.113082.E-05	-5.829285.E-05
793	8.92	-3.092235.E-05	-5.790337.E-05
794	8.93	-3.071550.E-05	-5.751691.E-05
795	8.94	-3.051027.E-05	-5.713345.E-05
796	8.95	-3.030663.E-05	-5.675297.E-05
797	8.96	-3.010457.E-05	-5.637542.E-05
798	8.97	-2.990408.E-05	-5.600080.E-05
799	8.98	-2.970514.E-05	-5.562907.E-05
800	8.99	-2.950775.E-05	-5.526020.E-05
801	9.00	-2.931188.E-05	-5.489418.E-05
802	9.01	-2.911752.E-05	-5.453097.E-05
803	9.02	-2.892466.E-05	-5.417056.E-05
804	9.03	-2.873329.E-05	-5.381292.E-05
805	9.04	-2.854340.E-05	-5.345802.E-05
806	9.05	-2.835496.E-05	-5.310584.E-05
807	9.06	-2.816797.E-05	-5.275635.E-05
808	9.07	-2.798242.E-05	-5.240954.E-05
809	9.08	-2.779829.E-05	-5.206538.E-05
810	9.09	-2.761557.E-05	-5.172385.E-05
811	9.10	-2.743424.E-05	-5.138492.E-05
812	9.11	-2.725431.E-05	-5.104857.E-05
813	9.12	-2.707574.E-05	-5.071478.E-05
814	9.13	-2.689854.E-05	-5.038353.E-05
815	9.14	-2.672269.E-05	-5.005479.E-05
816	9.15	-2.654818.E-05	-4.972855.E-05
817	9.16	-2.637499.E-05	-4.940478.E-05
818	9.17	-2.620312.E-05	-4.908346.E-05
819	9.18	-2.603255.E-05	-4.876457.E-05
820	9.19	-2.586327.E-05	-4.844808.E-05
821	9.20	-2.569528.E-05	-4.813399.E-05
822	9.21	-2.552855.E-05	-4.782226.E-05
823	9.22	-2.536309.E-05	-4.751288.E-05
824	9.23	-2.519887.E-05	-4.720582.E-05
825	9.24	-2.503589.E-05	-4.690108.E-05
826	9.25	-2.487414.E-05	-4.659862.E-05
827	9.26	-2.471360.E-05	-4.629843.E-05
828	9.27	-2.455427.E-05	-4.600048.E-05
829	9.28	-2.439614.E-05	-4.570477.E-05
830	9.29	-2.423919.E-05	-4.541126.E-05
831	9.30	-2.408342.E-05	-4.511995.E-05
832	9.31	-2.392881.E-05	-4.483081.E-05
833	9.32	-2.377536.E-05	-4.454383.E-05
834	9.33	-2.362305.E-05	-4.425898.E-05
835	9.34	-2.347188.E-05	-4.397625.E-05
836	9.35	-2.332184.E-05	-4.369562.E-05
837	9.36	-2.317291.E-05	-4.341707.E-05
838	9.37	-2.302509.E-05	-4.314059.E-05
839	9.38	-2.287836.E-05	-4.286615.E-05
840	9.39	-2.273273.E-05	-4.259374.E-05
841	9.40	-2.258817.E-05	-4.232335.E-05
842	9.41	-2.244469.E-05	-4.205496.E-05
843	9.42	-2.230227.E-05	-4.178854.E-05
844	9.43	-2.216089.E-05	-4.152409.E-05
845	9.44	-2.202056.E-05	-4.126158.E-05
846	9.45	-2.188127.E-05	-4.100100.E-05
847	9.46	-2.174300.E-05	-4.074234.E-05
848	9.47	-2.160575.E-05	-4.048557.E-05
849	9.48	-2.146951.E-05	-4.023069.E-05
850	9.49	-2.133427.E-05	-3.997767.E-05
851	9.50	-2.120002.E-05	-3.972650.E-05
852	9.51	-2.106675.E-05	-3.947717.E-05
853	9.52	-2.093446.E-05	-3.922966.E-05
854	9.53	-2.080314.E-05	-3.898395.E-05
855	9.54	-2.067277.E-05	-3.874004.E-05
856	9.55	-2.054336.E-05	-3.849790.E-05
857	9.56	-2.041489.E-05	-3.825752.E-05
858	9.57	-2.028735.E-05	-3.801888.E-05
859	9.58	-2.016075.E-05	-3.778198.E-05
860	9.59	-2.003506.E-05	-3.754679.E-05
861	9.60	-1.991028.E-05	-3.731331.E-05
862	9.61	-1.978641.E-05	-3.708152.E-05
863	9.62	-1.966344.E-05	-3.685140.E-05
864	9.63	-1.954136.E-05	-3.662294.E-05
865	9.64	-1.942016.E-05	-3.639613.E-05
866	9.65	-1.929983.E-05	-3.617095.E-05
867	9.66	-1.918038.E-05	-3.594740.E-05
868	9.67	-1.906178.E-05	-3.572545.E-05
869	9.68	-1.894404.E-05	-3.550510.E-05
870	9.69	-1.882715.E-05	-3.528633.E-05
871	9.70	-1.871109.E-05	-3.506912.E-05
872	9.71	-1.859587.E-05	-3.485347.E-05
873	9.72	-1.848147.E-05	-3.463937.E-05
874	9.73	-1.836790.E-05	-3.442679.E-05
875	9.74	-1.825513.E-05	-3.421573.E-05
876	9.75	-1.814318.E-05	-3.400618.E-05
877	9.76	-1.803202.E-05	-3.379812.E-05
878	9.77	-1.792165.E-05	-3.359154.E-05
879	9.78	-1.781208.E-05	-3.338643.E-05
880	9.79	-1.770328.E-05	-3.318278.E-05
881	9.80	-1.759525.E-05	-3.298058.E-05
882	9.81	-1.748800.E-05	-3.277980.E-05
883	9.82	-1.738150.E-05	-3.258045.E-05
884	9.83	-1.727576.E-05	-3.238251.E-05
885	9.84	-1.717077.E-05	-3.218597.E-05
886	9.85	-1.706652.E-05	-3.199082.E-05
887	9.86	-1.696301.E-05	-3.179704.E-05
888	9.87	-1.686023.E-05	-3.160463.E-05
889	9.88	-1.675818.E-05	-3.141358.E-05
890	9.89	-1.665685.E-05	-3.122387.E-05
891	9.90	-1.655623.E-05	-3.103549.E-05
892	9.91	-1.645631.E-05	-3.084844.E-05
893	9.92	-1.635710.E-05	-3.066269.E-05
894	9.93	-1.625859.E-05	-3.047825.E-05
895	9.94	-1.616076.E-05	-3.029510.E-05
896	9.95	-1.606363.E-05	-3.011323.E-05
897	9.96	-1.596717.E-05	-2.993263.E-05
898	9.97	-1.587138.E-05	-2.975329.E-05
899	9.98	-1.577627.E-05	-2.957520.E-05
900	9.99	-1.568182.E-05	-2.939836.E-05
901	10.00	-1.558803.E-05	-2.922274.E-05
902	10.01	-1.549489.E-05	-2.904834.E-05
903	10.02	-1.540240.E-05	-2.887516.E-05
904	10.03	-1.531055.E-05	-2.870317.E-05
905	10.04	-1.521934.E-05	-2.853238.E-05
906	10.05	-1.512877.E-05	-2.836277.E-05
907	10.06	-1.503882.E-05	-2.819434.E-05
908	10.07	-1.494949.E-05	-2.802707.E-05
909	10.08	-1.486079.E-05	-2.786095.E-05
910	10.09	-1.477269.E-05	-2.769598.E-05
911	10.10	-1.468520.E-05	-2.753215.E-05
912	10.11	-1.459832.E-05	-2.736945.E-05
913	10.12	-1.451204.E-05	-2.720786.E-05
914	10.13	-1.442635.E-05	-2.704738.E-05
915	10.14	-1.434125.E-05	-2.688801.E-05
916	10.15	-1.425673.E-05	-2.672973.E-05
917	10.16	-1.417279.E-05	-2.657253.E-05
918	10.17	-1.408943.E-05	-2.641641.E-05
919	10.18	-1.400664.E-05	-2.626136.E-05
920	10.19	-1.392442.E-05	-2.610737.E-05
921	10.20	-1.384276.E-05	-2.595443.E-05
922	10.21	-1.376166.E-05	-2.580253.E-05
923	10.22	-1.368111.E-05	-2.565166.E-05
924	10.23	-1.360111.E-05	-2.550183.E-05
925	10.24	-1.352165.E-05	-2.535301.E-05
926	10.25	-1.344274.E-05	-2.520520.E-05
927	10.26	-1.336436.E-05	-2.505840.E-05
928	10.27	-1.328652.E-05	-2.491259.E-05
929	10.28	-1.320920.E-05	-2.476777.E-05
930	10.29	-1.313241.E-05	-2.462392.E-05
931	10.30	-1.305613.E-05	-2.448106.E-05
932	10.31	-1.298037.E-05	-2.433915.E-05
933	10.32	-1.290513.E-05	-2.419820.E-05
934	10.33	-1.283039.E-05	-2.405821.E-05
935	10.34	-1.275616.E-05	-2.391916.E-05
936	10.35	-1.268243.E-05	-2.378104.E-05
937	10.36	-1.260919.E-05	-2.364385.E-05
938	10.37	-1.253645.E-05	-2.350758.E-05
939	10.38	-1.246419.E-05	-2.337223.E-05
940	10.39	-1.239242.E-05	-2.323778.E-05
941	10.40	-1.232113.E-05	-2.310423.E-05
942	10.41	-1.225032.E-05	-2.297158.E-05
943	10.42	-1.217999.E-05	-2.283982.E-05
944	10.43	-1.211012.E-05	-2.270893.E-05
945	10.44	-1.204072.E-05	-2.257892.E-05
946	10.45	-1.197179.E-05	-2.244977.E-05
947	10.46	-1.190331.E-05	-2.232149.E-05
948	10.47	-1.183529.E-05	-2.219405.E-05
949	10.48	-1.176772.E-05	-2.206747.E-05
950	10.49	-1.170061.E-05	-2.194172.E-05
951	10.50	-1.163393.E-05	-2.181681.E-05
952	10.51	-1.156771.E-05	-2.169273.E-05
953	10.52	-1.150192.E-05	-2.156947.E-05
954	10.53	-1.143656.E-05	-2.144703.E-05
955	10.54	-1.137164.E-05	-2.132539.E-05
956	10.55	-1.130715.E-05	-2.120456.E-05
957	10.56	-1.124308.E-05	-2.108452.E-05
958	10.57	-1.117944.E-05	-2.096528.E-05
959	10.58	-1.111622.E-05	-2.084682.E-05
960	10.59	-1.105341.E-05	-2.072914.E-05
961	10.60	-1.099102.E-05	-2.061223.E-05
962	10.61	-1.092903.E-05	-2.049609.E-05
963	10.62	-1.086746.E-05	-2.038071.E-05
964	10.63	-1.080628.E-05	-2.026609.E-05
965	10.64	-1.074551.E-05	-2.015222.E-05
966	10.65	-1.068514.E-05	-2.003910.E-05
967	10.66	-1.062516.E-05	-1.992671.E-05
968	10.67	-1.056558.E-05	-1.981506.E-05
969	10.68	-1.050638.E-05	-1.970414.E-05
970	10.69	-1.044757.E-05	-1.959394.E-05
971	10.70	-1.038915.E-05	-1.948446.E-05
972	10.71	-1.033110.E-05	-1.937569.E-05
973	10.72	-1.027344.E-05	-1.926762.E-05
974	10.73	-1.021614.E-05	-1.916026.E-05
975	10.74	-1.015922.E-05	-1.905360.E-05
976	10.75	-1.010267.E-05	-1.894763.E-05
977	10.76	-1.004649.E-05	-1.884234.E-05
978	10.77	-9.990670.E-06	-1.873773.E-05
979	10.78	-9.935211.E-06	-1.863380.E-05
980	10.79	-9.880111.E-06	-1.853055.E-05
981	10.80	-9.825368.E-06	-1.842796.E-05
982	10.81	-9.770977.E-06	-1.832603.E-05
983	10.82	-9.716938.E-06	-1.822475.E-05
984	10.83	-9.663246.E-06	-1.812413.E-05
985	10.84	-9.609901.E-06	-1.802416.E-05
986	10.85	-9.556898.E-06	-1.792482.E-05
987	10.86	-9.504236.E-06	-1.782613.E-05
988	10.87	-9.451912.E-06	-1.772807.E-05
989	10.88	-9.399924.E-06	-1.763063.E-05
990	10.89	-9.348269.E-06	-1.753382.E-05
991	10.90	-9.296944.E-06	-1.743763.E-05
992	10.91	-9.245948.E-06	-1.734205.E-05
993	10.92	-9.195278.E-06	-1.724709.E-05
994	10.93	-9.144931.E-06	-1.715273.E-05
995	10.94	-9.094906.E-06	-1.705897.E-05
996	10.95	-9.045199.E-06	-1.696580.E-05
997	10.96	-8.995809.E-06	-1.687323.E-05
998	10.97	-8.946733.E-06	-1.678125.E-05
999	10.98	-8.897970.E-06	-1.668985.E-05
1000	10.99	-8.849515.E-06	-1.659904.E-05
1001	11.00	-8.801369.E-06	-1.650879.E-05
1002	11.01	-8.753527.E-06	-1.641912.E-05
1003	11.02	-8.705988.E-06	-1.633002.E-05
1004	11.03	-8.658751.E-06	-1.624148.E-05
1005	11.04	-8.611812.E-06	-1.615350.E-05
1006	11.05	-8.565169.E-06	-1.606607.E-05
1007	11.06	-8.518821.E-06	-1.597919.E-05
1008	11.07	-8.472765.E-06	-1.589287.E-05
1009	11.08	-8.426999.E-06	-1.580708.E-05
1010	11.09	-8.381521.E-06	-1.572184.E-05
1011	11.10	-8.336329.E-06	-1.563713.E-05
1012	11.11	-8.291421.E-06	-1.555295.E-05
1013	11.12	-8.246795.E-06	-1.546930.E-05
1014	11.13	-8.202449.E-06	-1.538617.E-05
1015	11.14	-8.158380.E-06	-1.530356.E-05
1016	11.15	-8.114588.E-06	-1.522147.E-05
1017	11.16	-8.071069.E-06	-1.513990.E-05
1018	11.17	-8.027823.E-06	-1.505883.E-05
1019	11.18	-7.984846.E-06	-1.497827.E-05
1020	11.19	-7.942138.E-06	-1.489821.E-05
1021	11.20	-7.899695.E-06	-1.481864.E-05
1022	11.21	-7.857517.E-06	-1.473958.E-05
1023	11.22	-7.815601.E-06	-1.466100.E-05
1024	11.23	-7.773946.E-06	-1.458291.E-05
1025	11.24	-7.732550.E-06	-1.450531.E-05
1026	11.25	-7.691410.E-06	-1.442819.E-05
1027	11.26	-7.650526.E-06	-1.435154.E-05
1028	11.27	-7.609895.E-06	-1.427537.E-05
1029	11.28	-7.569515.E-06	-1.419967.E-05
1030	11.29	-7.529385.E-06	-1.412444.E-05
1031	11.30	-7.489502.E-06	-1.404967.E-05
1032	11.31	-7.449866.E-06	-1.397537.E-05
1033	11.32	-7.410475.E-06	-1.390152.E-05
1034	11.33	-7.371326.E-06	-1.382813.E-05
1035	11.34	-7.332418.E-06	-1.375518.E-05
1036	11.35	-7.293749.E-06	-1.368269.E-05
1037	11.36	-7.255318.E-06	-1.361064.E-05
1038	11.37	-7.217123.E-06	-1.353903.E-05
1039	11.38	-7.179162.E-06	-1.346786.E-05
1040	11.39	-7.141434.E-06	-1.339713.E-05
1041	11.40	-7.103937.E-06	-1.332683.E-05
1042	11.41	-7.066670.E-06	-1.325696.E-05
1043	11.42	-7.029630.E-06	-1.318752.E-05
1044	11.43	-6.992816.E-06	-1.311850.E-05
1045	11.44	-6.956227.E-06	-1.304990.E-05
1046	11.45	-6.919862.E-06	-1.298172.E-05
1047	11.46	-6.883717.E-06	-1.291395.E-05
1048	11.47	-6.847793.E-06	-1.284660.E-05
1049	11.48	-6.812087.E-06	-1.277965.E-05
1050	11.49	-6.776599.E-06	-1.271311.E-05
1051	11.50	-6.741325.E-06	-1.264698.E-05
1052	11.51	-6.706266.E-06	-1.258124.E-05
1053	11.52	-6.671419.E-06	-1.251591.E-05
1054	11.53	-6.636783.E-06	-1.245097.E-05
1055	11.54	-6.602357.E-06	-1.238642.E-05
1056	11.55	-6.568138.E-06	-1.232226.E-05
1057	11.56	-6.534127.E-06	-1.225849.E-05
1058	11.57	-6.500320.E-06	-1.219510.E-05
1059	11.58	-6.466718.E-06	-1.213210.E-05
1060	11.59	-6.433318.E-06	-1.206947.E-05
1061	11.60	-6.400119.E-06	-1.200722.E-05
1062	11.61	-6.367119.E-06	-1.194535.E-05
1063	11.62	-6.334318.E-06	-1.188384.E-05
1064	11.63	-6.301714.E-06	-1.182271.E-05
1065	11.64	-6.269305.E-06	-1.176194.E-05
1066	11.65	-6.237091.E-06	-1.170153.E-05
1067	11.66	-6.205069.E-06	-1.164149.E-05
1068	11.67	-6.173239.E-06	-1.158181.E-05
1069	11.68	-6.141599.E-06	-1.152248.E-05
1070	11.69	-6.110149.E-06	-1.146351.E-05
1071	11.70	-6.078886.E-06	-1.140488.E-05
1072	11.71	-6.047809.E-06	-1.134661.E-05
1073	11.72	-6.016918.E-06	-1.128868.E-05
1074	11.73	-5.986210.E-06	-1.123110.E-05
1075	11.74	-5.955685.E-06	-1.117386.E-05
1076	11.75	-5.925342.E-06	-1.111696.E-05
1077	11.76	-5.895178.E-06	-1.106040.E-05
1078	11.77	-5.865194.E-06	-1.100418.E-05
1079	11.78	-5.835387.E-06	-1.094828.E-05
1080	11.79	-5.805757.E-06	-1.089272.E-05
1081	11.80	-5.776302.E-06	-1.083749.E-05
1082	11.81	-5.747022.E-06	-1.078258.E-05
1083	11.82	-5.717914.E-06	-1.072799.E-05
1084	11.83	-5.688978.E-06	-1.067373.E-05
1085	11.84	-5.660213.E-06	-1.061979.E-05
1086	11.85	-5.631617.E-06	-1.056617.E-05
1087	11.86	-5.603190.E-06	-1.051286.E-05
1088	11.87	-5.574930.E-06	-1.045986.E-05
1089	11.88	-5.546836.E-06	-1.040718.E-05
1090	11.89	-5.518907.E-06	-1.035480.E-05
1091	11.90	-5.491142.E-06	-1.030273.E-05
1092	11.91	-5.463539.E-06	-1.025097.E-05
1093	11.92	-5.436099.E-06	-1.019951.E-05
1094	11.93	-5.408819.E-06	-1.014835.E-05
1095	11.94	-5.381698.E-06	-1.009749.E-05
1096	11.95	-5.354736.E-06	-1.004693.E-05
1097	11.96	-5.327931.E-06	-9.996662.E-06
1098	11.97	-5.301283.E-06	-9.946687.E-06
1099	11.98	-5.274790.E-06	-9.897003.E-06
1100	11.99	-5.248452.E-06	-9.847608.E-06
1101	12.00	-5.222267.E-06	-9.798501.E-06
1102	12.01	-5.196234.E-06	-9.749678.E-06
1103	12.02	-5.170352.E-06	-9.701140.E-06
1104	12.03	-5.144620.E-06	-9.652883.E-06
1105	12.04	-5.119038.E-06	-9.604905.E-06
1106	12.05	-5.093604.E-06	-9.557205.E-06
1107	12.06	-5.068317.E-06	-9.509782.E-06
1108	12.07	-5.043177.E-06	-9.462632.E-06
1109	12.08	-5.018182.E-06	-9.415755.E-06
1110	12.09	-4.993331.E-06	-9.369149.E-06
1111	12.10	-4.968624.E-06	-9.322811.E-06
1112	12.11	-4.944059.E-06	-9.276741.E-06
1113	12.12	-4.919635.E-06	-9.230935.E-06
1114	12.13	-4.895353.E-06	-9.185393.E-06
1115	12.14	-4.871210.E-06	-9.140113.E-06
1116	12.15	-4.847206.E-06	-9.095093.E-06
1117	12.16	-4.823339.E-06	-9.050332.E-06
1118	12.17	-4.799610.E-06	-9.005827.E-06
1119	12.18	-4.776016.E-06	-8.961577.E-06
1120	12.19	-4.752558.E-06	-8.917581.E-06
1121	12.20	-4.729234.E-06	-8.873836.E-06
1122	12.21	-4.706044.E-06	-8.830341.E-06
1123	12.22	-4.682986.E-06	-8.787095.E-06
1124	12.23	-4.660060.E-06	-8.744095.E-06
1125	12.24	-4.637264.E-06	-8.701341.E-06
1126	12.25	-4.614599.E-06	-8.658830.E-06
1127	12.26	-4.592062.E-06	-8.616561.E-06
1128	12.27	-4.569654.E-06	-8.574533.E-06
1129	12.28	-4.547374.E-06	-8.532743.E-06
1130	12.29	-4.525220.E-06	-8.491191.E-06
1131	12.30	-4.503191.E-06	-8.449875.E-06
1132	12.31	-4.481288.E-06	-8.408793.E-06
1133	12.32	-4.459509.E-06	-8.367943.E-06
1134	12.33	-4.437853.E-06	-8.327325.E-06
1135	12.34	-4.416320.E-06	-8.286937.E-06
1136	12.35	-4.394909.E-06	-8.246777.E-06
1137	12.36	-4.373618.E-06	-8.206843.E-06
1138	12.37	-4.352448.E-06	-8.167135.E-06
1139	12.38	-4.331398.E-06	-8.127651.E-06
1140	12.39	-4.310465.E-06	-8.088389.E-06
1141	12.40	-4.289651.E-06	-8.049349.E-06
1142	12.41	-4.268954.E-06	-8.010528.E-06
1143	12.42	-4.248374.E-06	-7.971925.E-06
1144	12.43	-4.227909.E-06	-7.933538.E-06
1145	12.44	-4.207558.E-06	-7.895368.E-06
1146	12.45	-4.187322.E-06	-7.857411.E-06
1147	12.46	-4.167200.E-06	-7.819667.E-06
1148	12.47	-4.147190.E-06	-7.782134.E-06
1149	12.48	-4.127292.E-06	-7.744811.E-06
1150	12.49	-4.107506.E-06	-7.707697.E-06
1151	12.50	-4.087830.E-06	-7.670790.E-06
1152	12.51	-4.068264.E-06	-7.634089.E-06
1153	12.52	-4.048807.E-06	-7.597592.E-06
1154	12.53	-4.029458.E-06	-7.561299.E-06
1155	12.54	-4.010217.E-06	-7.525208.E-06
1156	12.55	-3.991084.E-06	-7.489317.E-06
1157	12.56	-3.972057.E-06	-7.453626.E-06
1158	12.57	-3.953135.E-06	-7.418134.E-06
1159	12.58	-3.934319.E-06	-7.382838.E-06
1160	12.59	-3.915607.E-06	-7.347738.E-06
1161	12.60	-3.896998.E-06	-7.312832.E-06
1162	12.61	-3.878493.E-06	-7.278120.E-06
1163	12.62	-3.860090.E-06	-7.243600.E-06
1164	12.63	-3.841789.E-06	-7.209270.E-06
1165	12.64	-3.823589.E-06	-7.175130.E-06
1166	12.65	-3.805490.E-06	-7.141179.E-06
1167	12.66	-3.787490.E-06	-7.107414.E-06
1168	12.67	-3.769590.E-06	-7.073836.E-06
1169	12.68	-3.751788.E-06	-7.040443.E-06
1170	12.69	-3.734084.E-06	-7.007233.E-06
1171	12.70	-3.716478.E-06	-6.974206.E-06
1172	12.71	-3.698968.E-06	-6.941360.E-06
1173	12.72	-3.681555.E-06	-6.908695.E-06
1174	12.73	-3.664237.E-06	-6.876208.E-06
1175	12.74	-3.647014.E-06	-6.843900.E-06
1176	12.75	-3.629885.E-06	-6.811769.E-06
1177	12.76	-3.612850.E-06	-6.779813.E-06
1178	12.77	-3.595909.E-06	-6.748032.E-06
1179	12.78	-3.579060.E-06	-6.716425.E-06
1180	12.79	-3.562303.E-06	-6.684990.E-06
1181	12.80	-3.545637.E-06	-6.653727.E-06
1182	12.81	-3.529062.E-06	-6.622634.E-06
1183	12.82	-3.512578.E-06	-6.591711.E-06
1184	12.83	-3.496183.E-06	-6.560955.E-06
1185	12.84	-3.479878.E-06	-6.530367.E-06
1186	12.85	-3.463661.E-06	-6.499945.E-06
1187	12.86	-3.447532.E-06	-6.469689.E-06
1188	12.87	-3.431491.E-06	-6.439596.E-06
1189	12.88	-3.415537.E-06	-6.409667.E-06
1190	12.89	-3.399669.E-06	-6.379899.E-06
1191	12.90	-3.383887.E-06	-6.350293.E-06
1192	12.91	-3.368191.E-06	-6.320847.E-06
1193	12.92	-3.352580.E-06	-6.291560.E-06
1194	12.93	-3.337052.E-06	-6.262431.E-06
1195	12.94	-3.321609.E-06	-6.233460.E-06
1196	12.95	-3.306249.E-06	-6.204644.E-06
1197	12.96	-3.290972.E-06	-6.175984.E-06
1198	12.97	-3.275777.E-06	-6.147478.E-06
1199	12.98	-3.260663.E-06	-6.119125.E-06
1200	12.99	-3.245631.E-06	-6.090925.E-06
