# DATE: 2024-07-07  UNITS: metal  CONTRIBUTOR: By STUDENT			
# FHEP: Temp 77 [K], mr 0.666666666666667 [g/mol], Sigma 2.765 [A], Epsilon 0.0023712358386385 [eV]			
			
ENTRY			
N 1200 R 1.0 12.99			
			
1	1.00	1.165120.E+04	1.449008.E+05
2	1.01	1.016866.E+04	1.250219.E+05
3	1.02	8.887116.E+03	1.080322.E+05
4	1.03	7.777685.E+03	9.348876.E+04
5	1.04	6.815861.E+03	8.102013.E+04
6	1.05	5.980822.E+03	7.031403.E+04
7	1.06	5.254844.E+03	6.110759.E+04
8	1.07	4.622822.E+03	5.317915.E+04
9	1.08	4.071858.E+03	4.634149.E+04
10	1.09	3.590923.E+03	4.043620.E+04
11	1.10	3.170575.E+03	3.532909.E+04
12	1.11	2.802715.E+03	3.090625.E+04
13	1.12	2.480388.E+03	2.707087.E+04
14	1.13	2.197612.E+03	2.374056.E+04
15	1.14	1.949236.E+03	2.084506.E+04
16	1.15	1.730818.E+03	1.832442.E+04
17	1.16	1.538521.E+03	1.612736.E+04
18	1.17	1.369029.E+03	1.420999.E+04
19	1.18	1.219470.E+03	1.253469.E+04
20	1.19	1.087354.E+03	1.106916.E+04
21	1.20	9.705211.E+02	9.785643.E+03
22	1.21	8.670926.E+02	8.660235.E+03
23	1.22	7.754350.E+02	7.672349.E+03
24	1.23	6.941251.E+02	6.804215.E+03
25	1.24	6.219216.E+02	6.040482.E+03
26	1.25	5.577408.E+02	5.367872.E+03
27	1.26	5.006354.E+02	4.774884.E+03
28	1.27	4.497764.E+02	4.251548.E+03
29	1.28	4.044375.E+02	3.789207.E+03
30	1.29	3.639819.E+02	3.380339.E+03
31	1.30	3.278504.E+02	3.018400.E+03
32	1.31	2.955516.E+02	2.697688.E+03
33	1.32	2.666533.E+02	2.413232.E+03
34	1.33	2.407747.E+02	2.160694.E+03
35	1.34	2.175804.E+02	1.936281.E+03
36	1.35	1.967742.E+02	1.736677.E+03
37	1.36	1.780945.E+02	1.558978.E+03
38	1.37	1.613103.E+02	1.400636.E+03
39	1.38	1.462169.E+02	1.259419.E+03
40	1.39	1.326332.E+02	1.133365.E+03
41	1.40	1.203984.E+02	1.020748.E+03
42	1.41	1.093701.E+02	9.200508.E+02
43	1.42	9.942165.E+01	8.299363.E+02
44	1.43	9.044059.E+01	7.492256.E+02
45	1.44	8.232681.E+01	6.768786.E+02
46	1.45	7.499118.E+01	6.119766.E+02
47	1.46	6.835428.E+01	5.537071.E+02
48	1.47	6.234528.E+01	5.013516.E+02
49	1.48	5.690096.E+01	4.542734.E+02
50	1.49	5.196484.E+01	4.119084.E+02
51	1.50	4.748643.E+01	3.737562.E+02
52	1.51	4.342055.E+01	3.393723.E+02
53	1.52	3.972675.E+01	3.083618.E+02
54	1.53	3.636879.E+01	2.803736.E+02
55	1.54	3.331416.E+01	2.550951.E+02
56	1.55	3.053370.E+01	2.322480.E+02
57	1.56	2.800120.E+01	2.115839.E+02
58	1.57	2.569314.E+01	1.928815.E+02
59	1.58	2.358832.E+01	1.759431.E+02
60	1.59	2.166771.E+01	1.605921.E+02
61	1.60	1.991413.E+01	1.466705.E+02
62	1.61	1.831213.E+01	1.340369.E+02
63	1.62	1.684775.E+01	1.225649.E+02
64	1.63	1.550840.E+01	1.121409.E+02
65	1.64	1.428274.E+01	1.026633.E+02
66	1.65	1.316047.E+01	9.404087.E+01
67	1.66	1.213232.E+01	8.619156.E+01
68	1.67	1.118988.E+01	7.904174.E+01
69	1.68	1.032555.E+01	7.252518.E+01
70	1.69	9.532434.E+00	6.658228.E+01
71	1.70	8.804291.E+00	6.115937.E+01
72	1.71	8.135454.E+00	5.620810.E+01
73	1.72	7.520783.E+00	5.168487.E+01
74	1.73	6.955608.E+00	4.755034.E+01
75	1.74	6.435687.E+00	4.376901.E+01
76	1.75	5.957166.E+00	4.030880.E+01
77	1.76	5.516536.E+00	3.714071.E+01
78	1.77	5.110605.E+00	3.423853.E+01
79	1.78	4.736466.E+00	3.157852.E+01
80	1.79	4.391470.E+00	2.913919.E+01
81	1.80	4.073203.E+00	2.690108.E+01
82	1.81	3.779461.E+00	2.484653.E+01
83	1.82	3.508235.E+00	2.295953.E+01
84	1.83	3.257690.E+00	2.122555.E+01
85	1.84	3.026148.E+00	1.963139.E+01
86	1.85	2.812078.E+00	1.816505.E+01
87	1.86	2.614078.E+00	1.681564.E+01
88	1.87	2.430866.E+00	1.557323.E+01
89	1.88	2.261268.E+00	1.442880.E+01
90	1.89	2.104209.E+00	1.337413.E+01
91	1.90	1.958704.E+00	1.240173.E+01
92	1.91	1.823851.E+00	1.150477.E+01
93	1.92	1.698821.E+00	1.067703.E+01
94	1.93	1.582855.E+00	9.912815.E+00
95	1.94	1.475254.E+00	9.206946.E+00
96	1.95	1.375379.E+00	8.554681.E+00
97	1.96	1.282641.E+00	7.951690.E+00
98	1.97	1.196498.E+00	7.394012.E+00
99	1.98	1.116454.E+00	6.878025.E+00
100	1.99	1.042050.E+00	6.400412.E+00
101	2.00	9.728647.E-01	5.958136.E+00
102	2.01	9.085105.E-01	5.548417.E+00
103	2.02	8.486298.E-01	5.168705.E+00
104	2.03	7.928931.E-01	4.816661.E+00
105	2.04	7.409967.E-01	4.490142.E+00
106	2.05	6.926606.E-01	4.187178.E+00
107	2.06	6.476261.E-01	3.905962.E+00
108	2.07	6.056547.E-01	3.644833.E+00
109	2.08	5.665260.E-01	3.402265.E+00
110	2.09	5.300364.E-01	3.176855.E+00
111	2.10	4.959979.E-01	2.967313.E+00
112	2.11	4.642364.E-01	2.772451.E+00
113	2.12	4.345911.E-01	2.591174.E+00
114	2.13	4.069131.E-01	2.422477.E+00
115	2.14	3.810647.E-01	2.265431.E+00
116	2.15	3.569182.E-01	2.119180.E+00
117	2.16	3.343557.E-01	1.982937.E+00
118	2.17	3.132674.E-01	1.855973.E+00
119	2.18	2.935521.E-01	1.737616.E+00
120	2.19	2.751156.E-01	1.627247.E+00
121	2.20	2.578705.E-01	1.524294.E+00
122	2.21	2.417360.E-01	1.428226.E+00
123	2.22	2.266369.E-01	1.338555.E+00
124	2.23	2.125033.E-01	1.254829.E+00
125	2.24	1.992705.E-01	1.176629.E+00
126	2.25	1.868782.E-01	1.103568.E+00
127	2.26	1.752704.E-01	1.035288.E+00
128	2.27	1.643951.E-01	9.714560.E-01
129	2.28	1.542039.E-01	9.117657.E-01
130	2.29	1.446518.E-01	8.559317.E-01
131	2.30	1.356968.E-01	8.036900.E-01
132	2.31	1.273000.E-01	7.547954.E-01
133	2.32	1.194251.E-01	7.090208.E-01
134	2.33	1.120381.E-01	6.661552.E-01
135	2.34	1.051076.E-01	6.260029.E-01
136	2.35	9.860425.E-02	5.883818.E-01
137	2.36	9.250061.E-02	5.531233.E-01
138	2.37	8.677115.E-02	5.200701.E-01
139	2.38	8.139205.E-02	4.890765.E-01
140	2.39	7.634108.E-02	4.600067.E-01
141	2.40	7.159750.E-02	4.327345.E-01
142	2.41	6.714194.E-02	4.071424.E-01
143	2.42	6.295631.E-02	3.831210.E-01
144	2.43	5.902372.E-02	3.605687.E-01
145	2.44	5.532839.E-02	3.393905.E-01
146	2.45	5.185556.E-02	3.194981.E-01
147	2.46	4.859144.E-02	3.008092.E-01
148	2.47	4.552314.E-02	2.832470.E-01
149	2.48	4.263859.E-02	2.667401.E-01
150	2.49	3.992653.E-02	2.512215.E-01
151	2.50	3.737638.E-02	2.366291.E-01
152	2.51	3.497826.E-02	2.229046.E-01
153	2.52	3.272294.E-02	2.099939.E-01
154	2.53	3.060173.E-02	1.978461.E-01
155	2.54	2.860653.E-02	1.864140.E-01
156	2.55	2.672973.E-02	1.756533.E-01
157	2.56	2.496421.E-02	1.655226.E-01
158	2.57	2.330329.E-02	1.559833.E-01
159	2.58	2.174072.E-02	1.469992.E-01
160	2.59	2.027061.E-02	1.385365.E-01
161	2.60	1.888748.E-02	1.305636.E-01
162	2.61	1.758614.E-02	1.230507.E-01
163	2.62	1.636175.E-02	1.159702.E-01
164	2.63	1.520977.E-02	1.092961.E-01
165	2.64	1.412593.E-02	1.030042.E-01
166	2.65	1.310621.E-02	9.707144.E-02
167	2.66	1.214685.E-02	9.147667.E-02
168	2.67	1.124432.E-02	8.619980.E-02
169	2.68	1.039528.E-02	8.122208.E-02
170	2.69	9.596631.E-03	7.652589.E-02
171	2.70	8.845425.E-03	7.209472.E-02
172	2.71	8.138908.E-03	6.791308.E-02
173	2.72	7.474486.E-03	6.396643.E-02
174	2.73	6.849722.E-03	6.024110.E-02
175	2.74	6.262321.E-03	5.672429.E-02
176	2.75	5.710128.E-03	5.340396.E-02
177	2.76	5.191112.E-03	5.026880.E-02
178	2.77	4.703364.E-03	4.730818.E-02
179	2.78	4.245087.E-03	4.451212.E-02
180	2.79	3.814588.E-03	4.187122.E-02
181	2.80	3.410275.E-03	3.937668.E-02
182	2.81	3.030647.E-03	3.702017.E-02
183	2.82	2.674293.E-03	3.479391.E-02
184	2.83	2.339882.E-03	3.269054.E-02
185	2.84	2.026161.E-03	3.070315.E-02
186	2.85	1.731948.E-03	2.882524.E-02
187	2.86	1.456132.E-03	2.705069.E-02
188	2.87	1.197663.E-03	2.537372.E-02
189	2.88	9.555539.E-04	2.378890.E-02
190	2.89	7.288718.E-04	2.229113.E-02
191	2.90	5.167386.E-04	2.087558.E-02
192	2.91	3.183261.E-04	1.953771.E-02
193	2.92	1.328528.E-04	1.827323.E-02
194	2.93	-4.041779.E-05	1.707813.E-02
195	2.94	-2.021808.E-04	1.594858.E-02
196	2.95	-3.530919.E-04	1.488100.E-02
197	2.96	-4.937696.E-04	1.387202.E-02
198	2.97	-6.247977.E-04	1.291843.E-02
199	2.98	-7.467269.E-04	1.201722.E-02
200	2.99	-8.600772.E-04	1.116555.E-02
201	3.00	-9.653391.E-04	1.036074.E-02
202	3.01	-1.062976.E-03	9.600262.E-03
203	3.02	-1.153425.E-03	8.881713.E-03
204	3.03	-1.237099.E-03	8.202840.E-03
205	3.04	-1.314388.E-03	7.561509.E-03
206	3.05	-1.385659.E-03	6.955706.E-03
207	3.06	-1.451261.E-03	6.383527.E-03
208	3.07	-1.511522.E-03	5.843172.E-03
209	3.08	-1.566752.E-03	5.332943.E-03
210	3.09	-1.617243.E-03	4.851231.E-03
211	3.10	-1.663272.E-03	4.396519.E-03
212	3.11	-1.705101.E-03	3.967368.E-03
213	3.12	-1.742976.E-03	3.562421.E-03
214	3.13	-1.777131.E-03	3.180394.E-03
215	3.14	-1.807785.E-03	2.820071.E-03
216	3.15	-1.835148.E-03	2.480302.E-03
217	3.16	-1.859415.E-03	2.160000.E-03
218	3.17	-1.880773.E-03	1.858135.E-03
219	3.18	-1.899397.E-03	1.573733.E-03
220	3.19	-1.915453.E-03	1.305872.E-03
221	3.20	-1.929098.E-03	1.053679.E-03
222	3.21	-1.940479.E-03	8.163285.E-04
223	3.22	-1.949737.E-03	5.930367.E-04
224	3.23	-1.957004.E-03	3.830630.E-04
225	3.24	-1.962406.E-03	1.857056.E-04
226	3.25	-1.966059.E-03	2.996244.E-07
227	3.26	-1.968076.E-03	-1.737847.E-04
228	3.27	-1.968561.E-03	-3.371441.E-04
229	3.28	-1.967615.E-03	-4.903439.E-04
230	3.29	-1.965332.E-03	-6.339197.E-04
231	3.30	-1.961800.E-03	-7.683794.E-04
232	3.31	-1.957103.E-03	-8.942041.E-04
233	3.32	-1.951321.E-03	-1.011850.E-03
234	3.33	-1.944528.E-03	-1.121749.E-03
235	3.34	-1.936796.E-03	-1.224312.E-03
236	3.35	-1.928190.E-03	-1.319927.E-03
237	3.36	-1.918774.E-03	-1.408963.E-03
238	3.37	-1.908607.E-03	-1.491768.E-03
239	3.38	-1.897746.E-03	-1.568676.E-03
240	3.39	-1.886243.E-03	-1.639999.E-03
241	3.40	-1.874149.E-03	-1.706036.E-03
242	3.41	-1.861511.E-03	-1.767070.E-03
243	3.42	-1.848373.E-03	-1.823369.E-03
244	3.43	-1.834777.E-03	-1.875188.E-03
245	3.44	-1.820763.E-03	-1.922768.E-03
246	3.45	-1.806368.E-03	-1.966337.E-03
247	3.46	-1.791627.E-03	-2.006115.E-03
248	3.47	-1.776574.E-03	-2.042306.E-03
249	3.48	-1.761239.E-03	-2.075106.E-03
250	3.49	-1.745653.E-03	-2.104701.E-03
251	3.50	-1.729842.E-03	-2.131268.E-03
252	3.51	-1.713833.E-03	-2.154973.E-03
253	3.52	-1.697651.E-03	-2.175976.E-03
254	3.53	-1.681318.E-03	-2.194426.E-03
255	3.54	-1.664856.E-03	-2.210467.E-03
256	3.55	-1.648285.E-03	-2.224235.E-03
257	3.56	-1.631625.E-03	-2.235857.E-03
258	3.57	-1.614893.E-03	-2.245458.E-03
259	3.58	-1.598107.E-03	-2.253152.E-03
260	3.59	-1.581283.E-03	-2.259049.E-03
261	3.60	-1.564434.E-03	-2.263254.E-03
262	3.61	-1.547575.E-03	-2.265866.E-03
263	3.62	-1.530719.E-03	-2.266980.E-03
264	3.63	-1.513878.E-03	-2.266684.E-03
265	3.64	-1.497064.E-03	-2.265064.E-03
266	3.65	-1.480286.E-03	-2.262199.E-03
267	3.66	-1.463556.E-03	-2.258166.E-03
268	3.67	-1.446882.E-03	-2.253037.E-03
269	3.68	-1.430272.E-03	-2.246882.E-03
270	3.69	-1.413735.E-03	-2.239765.E-03
271	3.70	-1.397278.E-03	-2.231748.E-03
272	3.71	-1.380909.E-03	-2.222890.E-03
273	3.72	-1.364633.E-03	-2.213246.E-03
274	3.73	-1.348456.E-03	-2.202870.E-03
275	3.74	-1.332384.E-03	-2.191810.E-03
276	3.75	-1.316421.E-03	-2.180116.E-03
277	3.76	-1.300573.E-03	-2.167831.E-03
278	3.77	-1.284844.E-03	-2.154999.E-03
279	3.78	-1.269237.E-03	-2.141659.E-03
280	3.79	-1.253757.E-03	-2.127851.E-03
281	3.80	-1.238405.E-03	-2.113610.E-03
282	3.81	-1.223186.E-03	-2.098971.E-03
283	3.82	-1.208102.E-03	-2.083966.E-03
284	3.83	-1.193155.E-03	-2.068627.E-03
285	3.84	-1.178347.E-03	-2.052982.E-03
286	3.85	-1.163680.E-03	-2.037059.E-03
287	3.86	-1.149156.E-03	-2.020885.E-03
288	3.87	-1.134776.E-03	-2.004485.E-03
289	3.88	-1.120541.E-03	-1.987881.E-03
290	3.89	-1.106453.E-03	-1.971095.E-03
291	3.90	-1.092513.E-03	-1.954150.E-03
292	3.91	-1.078720.E-03	-1.937064.E-03
293	3.92	-1.065076.E-03	-1.919857.E-03
294	3.93	-1.051581.E-03	-1.902546.E-03
295	3.94	-1.038236.E-03	-1.885147.E-03
296	3.95	-1.025039.E-03	-1.867678.E-03
297	3.96	-1.011992.E-03	-1.850151.E-03
298	3.97	-9.990946.E-04	-1.832582.E-03
299	3.98	-9.863460.E-04	-1.814984.E-03
300	3.99	-9.737461.E-04	-1.797369.E-03
301	4.00	-9.612947.E-04	-1.779749.E-03
302	4.01	-9.489912.E-04	-1.762135.E-03
303	4.02	-9.368350.E-04	-1.744537.E-03
304	4.03	-9.248256.E-04	-1.726965.E-03
305	4.04	-9.129621.E-04	-1.709429.E-03
306	4.05	-9.012439.E-04	-1.691936.E-03
307	4.06	-8.896701.E-04	-1.674496.E-03
308	4.07	-8.782398.E-04	-1.657114.E-03
309	4.08	-8.669522.E-04	-1.639800.E-03
310	4.09	-8.558061.E-04	-1.622558.E-03
311	4.10	-8.448006.E-04	-1.605396.E-03
312	4.11	-8.339346.E-04	-1.588319.E-03
313	4.12	-8.232070.E-04	-1.571332.E-03
314	4.13	-8.126167.E-04	-1.554441.E-03
315	4.14	-8.021625.E-04	-1.537650.E-03
316	4.15	-7.918432.E-04	-1.520964.E-03
317	4.16	-7.816576.E-04	-1.504386.E-03
318	4.17	-7.716045.E-04	-1.487920.E-03
319	4.18	-7.616826.E-04	-1.471570.E-03
320	4.19	-7.518906.E-04	-1.455338.E-03
321	4.20	-7.422272.E-04	-1.439228.E-03
322	4.21	-7.326912.E-04	-1.423242.E-03
323	4.22	-7.232811.E-04	-1.407383.E-03
324	4.23	-7.139957.E-04	-1.391652.E-03
325	4.24	-7.048337.E-04	-1.376052.E-03
326	4.25	-6.957936.E-04	-1.360585.E-03
327	4.26	-6.868742.E-04	-1.345252.E-03
328	4.27	-6.780740.E-04	-1.330054.E-03
329	4.28	-6.693918.E-04	-1.314993.E-03
330	4.29	-6.608261.E-04	-1.300070.E-03
331	4.30	-6.523757.E-04	-1.285285.E-03
332	4.31	-6.440391.E-04	-1.270640.E-03
333	4.32	-6.358150.E-04	-1.256136.E-03
334	4.33	-6.277020.E-04	-1.241772.E-03
335	4.34	-6.196988.E-04	-1.227549.E-03
336	4.35	-6.118041.E-04	-1.213468.E-03
337	4.36	-6.040165.E-04	-1.199528.E-03
338	4.37	-5.963346.E-04	-1.185730.E-03
339	4.38	-5.887571.E-04	-1.172074.E-03
340	4.39	-5.812828.E-04	-1.158560.E-03
341	4.40	-5.739103.E-04	-1.145187.E-03
342	4.41	-5.666382.E-04	-1.131955.E-03
343	4.42	-5.594654.E-04	-1.118865.E-03
344	4.43	-5.523904.E-04	-1.105914.E-03
345	4.44	-5.454121.E-04	-1.093104.E-03
346	4.45	-5.385291.E-04	-1.080434.E-03
347	4.46	-5.317403.E-04	-1.067903.E-03
348	4.47	-5.250442.E-04	-1.055510.E-03
349	4.48	-5.184398.E-04	-1.043254.E-03
350	4.49	-5.119258.E-04	-1.031136.E-03
351	4.50	-5.055009.E-04	-1.019154.E-03
352	4.51	-4.991639.E-04	-1.007308.E-03
353	4.52	-4.929138.E-04	-9.955957.E-04
354	4.53	-4.867492.E-04	-9.840175.E-04
355	4.54	-4.806690.E-04	-9.725720.E-04
356	4.55	-4.746720.E-04	-9.612585.E-04
357	4.56	-4.687572.E-04	-9.500758.E-04
358	4.57	-4.629234.E-04	-9.390231.E-04
359	4.58	-4.571694.E-04	-9.280993.E-04
360	4.59	-4.514942.E-04	-9.173033.E-04
361	4.60	-4.458966.E-04	-9.066342.E-04
362	4.61	-4.403755.E-04	-8.960908.E-04
363	4.62	-4.349300.E-04	-8.856721.E-04
364	4.63	-4.295589.E-04	-8.753770.E-04
365	4.64	-4.242613.E-04	-8.652043.E-04
366	4.65	-4.190359.E-04	-8.551529.E-04
367	4.66	-4.138819.E-04	-8.452217.E-04
368	4.67	-4.087983.E-04	-8.354096.E-04
369	4.68	-4.037840.E-04	-8.257154.E-04
370	4.69	-3.988381.E-04	-8.161379.E-04
371	4.70	-3.939595.E-04	-8.066760.E-04
372	4.71	-3.891474.E-04	-7.973285.E-04
373	4.72	-3.844007.E-04	-7.880943.E-04
374	4.73	-3.797187.E-04	-7.789722.E-04
375	4.74	-3.751002.E-04	-7.699610.E-04
376	4.75	-3.705445.E-04	-7.610595.E-04
377	4.76	-3.660506.E-04	-7.522666.E-04
378	4.77	-3.616177.E-04	-7.435811.E-04
379	4.78	-3.572448.E-04	-7.350018.E-04
380	4.79	-3.529311.E-04	-7.265276.E-04
381	4.80	-3.486758.E-04	-7.181573.E-04
382	4.81	-3.444780.E-04	-7.098898.E-04
383	4.82	-3.403370.E-04	-7.017238.E-04
384	4.83	-3.362518.E-04	-6.936583.E-04
385	4.84	-3.322217.E-04	-6.856920.E-04
386	4.85	-3.282459.E-04	-6.778239.E-04
387	4.86	-3.243236.E-04	-6.700528.E-04
388	4.87	-3.204540.E-04	-6.623777.E-04
389	4.88	-3.166364.E-04	-6.547972.E-04
390	4.89	-3.128701.E-04	-6.473105.E-04
391	4.90	-3.091542.E-04	-6.399162.E-04
392	4.91	-3.054881.E-04	-6.326135.E-04
393	4.92	-3.018711.E-04	-6.254010.E-04
394	4.93	-2.983024.E-04	-6.182779.E-04
395	4.94	-2.947814.E-04	-6.112429.E-04
396	4.95	-2.913073.E-04	-6.042950.E-04
397	4.96	-2.878795.E-04	-5.974332.E-04
398	4.97	-2.844973.E-04	-5.906565.E-04
399	4.98	-2.811601.E-04	-5.839637.E-04
400	4.99	-2.778672.E-04	-5.773538.E-04
401	5.00	-2.746180.E-04	-5.708259.E-04
402	5.01	-2.714118.E-04	-5.643789.E-04
403	5.02	-2.682481.E-04	-5.580117.E-04
404	5.03	-2.651262.E-04	-5.517235.E-04
405	5.04	-2.620455.E-04	-5.455132.E-04
406	5.05	-2.590054.E-04	-5.393798.E-04
407	5.06	-2.560054.E-04	-5.333224.E-04
408	5.07	-2.530449.E-04	-5.273401.E-04
409	5.08	-2.501232.E-04	-5.214318.E-04
410	5.09	-2.472399.E-04	-5.155967.E-04
411	5.10	-2.443944.E-04	-5.098338.E-04
412	5.11	-2.415861.E-04	-5.041421.E-04
413	5.12	-2.388146.E-04	-4.985209.E-04
414	5.13	-2.360792.E-04	-4.929692.E-04
415	5.14	-2.333795.E-04	-4.874860.E-04
416	5.15	-2.307150.E-04	-4.820707.E-04
417	5.16	-2.280852.E-04	-4.767221.E-04
418	5.17	-2.254895.E-04	-4.714396.E-04
419	5.18	-2.229275.E-04	-4.662222.E-04
420	5.19	-2.203987.E-04	-4.610692.E-04
421	5.20	-2.179026.E-04	-4.559797.E-04
422	5.21	-2.154388.E-04	-4.509528.E-04
423	5.22	-2.130067.E-04	-4.459878.E-04
424	5.23	-2.106061.E-04	-4.410839.E-04
425	5.24	-2.082363.E-04	-4.362402.E-04
426	5.25	-2.058970.E-04	-4.314561.E-04
427	5.26	-2.035877.E-04	-4.267306.E-04
428	5.27	-2.013081.E-04	-4.220632.E-04
429	5.28	-1.990576.E-04	-4.174529.E-04
430	5.29	-1.968359.E-04	-4.128991.E-04
431	5.30	-1.946426.E-04	-4.084011.E-04
432	5.31	-1.924772.E-04	-4.039581.E-04
433	5.32	-1.903394.E-04	-3.995694.E-04
434	5.33	-1.882288.E-04	-3.952342.E-04
435	5.34	-1.861450.E-04	-3.909520.E-04
436	5.35	-1.840877.E-04	-3.867220.E-04
437	5.36	-1.820563.E-04	-3.825435.E-04
438	5.37	-1.800507.E-04	-3.784158.E-04
439	5.38	-1.780704.E-04	-3.743384.E-04
440	5.39	-1.761150.E-04	-3.703105.E-04
441	5.40	-1.741843.E-04	-3.663314.E-04
442	5.41	-1.722779.E-04	-3.624006.E-04
443	5.42	-1.703954.E-04	-3.585175.E-04
444	5.43	-1.685365.E-04	-3.546814.E-04
445	5.44	-1.667008.E-04	-3.508916.E-04
446	5.45	-1.648882.E-04	-3.471476.E-04
447	5.46	-1.630981.E-04	-3.434488.E-04
448	5.47	-1.613304.E-04	-3.397947.E-04
449	5.48	-1.595847.E-04	-3.361845.E-04
450	5.49	-1.578606.E-04	-3.326178.E-04
451	5.50	-1.561580.E-04	-3.290939.E-04
452	5.51	-1.544765.E-04	-3.256124.E-04
453	5.52	-1.528158.E-04	-3.221726.E-04
454	5.53	-1.511756.E-04	-3.187741.E-04
455	5.54	-1.495557.E-04	-3.154162.E-04
456	5.55	-1.479557.E-04	-3.120985.E-04
457	5.56	-1.463754.E-04	-3.088204.E-04
458	5.57	-1.448146.E-04	-3.055815.E-04
459	5.58	-1.432729.E-04	-3.023811.E-04
460	5.59	-1.417500.E-04	-2.992189.E-04
461	5.60	-1.402458.E-04	-2.960942.E-04
462	5.61	-1.387600.E-04	-2.930067.E-04
463	5.62	-1.372923.E-04	-2.899558.E-04
464	5.63	-1.358425.E-04	-2.869411.E-04
465	5.64	-1.344103.E-04	-2.839621.E-04
466	5.65	-1.329955.E-04	-2.810183.E-04
467	5.66	-1.315979.E-04	-2.781093.E-04
468	5.67	-1.302172.E-04	-2.752346.E-04
469	5.68	-1.288532.E-04	-2.723938.E-04
470	5.69	-1.275056.E-04	-2.695864.E-04
471	5.70	-1.261743.E-04	-2.668120.E-04
472	5.71	-1.248590.E-04	-2.640702.E-04
473	5.72	-1.235596.E-04	-2.613606.E-04
474	5.73	-1.222757.E-04	-2.586827.E-04
475	5.74	-1.210072.E-04	-2.560362.E-04
476	5.75	-1.197539.E-04	-2.534206.E-04
477	5.76	-1.185156.E-04	-2.508355.E-04
478	5.77	-1.172920.E-04	-2.482806.E-04
479	5.78	-1.160830.E-04	-2.457554.E-04
480	5.79	-1.148884.E-04	-2.432596.E-04
481	5.80	-1.137080.E-04	-2.407927.E-04
482	5.81	-1.125416.E-04	-2.383545.E-04
483	5.82	-1.113890.E-04	-2.359446.E-04
484	5.83	-1.102500.E-04	-2.335625.E-04
485	5.84	-1.091245.E-04	-2.312080.E-04
486	5.85	-1.080122.E-04	-2.288806.E-04
487	5.86	-1.069131.E-04	-2.265801.E-04
488	5.87	-1.058268.E-04	-2.243061.E-04
489	5.88	-1.047534.E-04	-2.220583.E-04
490	5.89	-1.036924.E-04	-2.198362.E-04
491	5.90	-1.026440.E-04	-2.176397.E-04
492	5.91	-1.016077.E-04	-2.154683.E-04
493	5.92	-1.005836.E-04	-2.133217.E-04
494	5.93	-9.957134.E-05	-2.111997.E-04
495	5.94	-9.857089.E-05	-2.091019.E-04
496	5.95	-9.758207.E-05	-2.070280.E-04
497	5.96	-9.660471.E-05	-2.049778.E-04
498	5.97	-9.563867.E-05	-2.029508.E-04
499	5.98	-9.468381.E-05	-2.009469.E-04
500	5.99	-9.373997.E-05	-1.989656.E-04
501	6.00	-9.280701.E-05	-1.970068.E-04
502	6.01	-9.188479.E-05	-1.950702.E-04
503	6.02	-9.097317.E-05	-1.931555.E-04
504	6.03	-9.007202.E-05	-1.912623.E-04
505	6.04	-8.918119.E-05	-1.893905.E-04
506	6.05	-8.830056.E-05	-1.875397.E-04
507	6.06	-8.742999.E-05	-1.857097.E-04
508	6.07	-8.656936.E-05	-1.839003.E-04
509	6.08	-8.571853.E-05	-1.821112.E-04
510	6.09	-8.487738.E-05	-1.803420.E-04
511	6.10	-8.404578.E-05	-1.785927.E-04
512	6.11	-8.322362.E-05	-1.768628.E-04
513	6.12	-8.241076.E-05	-1.751523.E-04
514	6.13	-8.160710.E-05	-1.734608.E-04
515	6.14	-8.081252.E-05	-1.717881.E-04
516	6.15	-8.002689.E-05	-1.701340.E-04
517	6.16	-7.925011.E-05	-1.684982.E-04
518	6.17	-7.848206.E-05	-1.668805.E-04
519	6.18	-7.772264.E-05	-1.652807.E-04
520	6.19	-7.697172.E-05	-1.636986.E-04
521	6.20	-7.622921.E-05	-1.621340.E-04
522	6.21	-7.549500.E-05	-1.605866.E-04
523	6.22	-7.476898.E-05	-1.590561.E-04
524	6.23	-7.405105.E-05	-1.575426.E-04
525	6.24	-7.334111.E-05	-1.560456.E-04
526	6.25	-7.263906.E-05	-1.545650.E-04
527	6.26	-7.194479.E-05	-1.531006.E-04
528	6.27	-7.125822.E-05	-1.516522.E-04
529	6.28	-7.057924.E-05	-1.502196.E-04
530	6.29	-6.990775.E-05	-1.488027.E-04
531	6.30	-6.924368.E-05	-1.474011.E-04
532	6.31	-6.858692.E-05	-1.460148.E-04
533	6.32	-6.793737.E-05	-1.446435.E-04
534	6.33	-6.729496.E-05	-1.432871.E-04
535	6.34	-6.665960.E-05	-1.419454.E-04
536	6.35	-6.603119.E-05	-1.406182.E-04
537	6.36	-6.540965.E-05	-1.393053.E-04
538	6.37	-6.479489.E-05	-1.380066.E-04
539	6.38	-6.418684.E-05	-1.367218.E-04
540	6.39	-6.358540.E-05	-1.354509.E-04
541	6.40	-6.299050.E-05	-1.341936.E-04
542	6.41	-6.240205.E-05	-1.329497.E-04
543	6.42	-6.181998.E-05	-1.317192.E-04
544	6.43	-6.124421.E-05	-1.305019.E-04
545	6.44	-6.067467.E-05	-1.292975.E-04
546	6.45	-6.011126.E-05	-1.281060.E-04
547	6.46	-5.955393.E-05	-1.269272.E-04
548	6.47	-5.900259.E-05	-1.257610.E-04
549	6.48	-5.845717.E-05	-1.246071.E-04
550	6.49	-5.791761.E-05	-1.234654.E-04
551	6.50	-5.738382.E-05	-1.223359.E-04
552	6.51	-5.685575.E-05	-1.212183.E-04
553	6.52	-5.633331.E-05	-1.201125.E-04
554	6.53	-5.581645.E-05	-1.190183.E-04
555	6.54	-5.530509.E-05	-1.179357.E-04
556	6.55	-5.479916.E-05	-1.168645.E-04
557	6.56	-5.429861.E-05	-1.158045.E-04
558	6.57	-5.380337.E-05	-1.147557.E-04
559	6.58	-5.331337.E-05	-1.137178.E-04
560	6.59	-5.282855.E-05	-1.126908.E-04
561	6.60	-5.234885.E-05	-1.116746.E-04
562	6.61	-5.187421.E-05	-1.106689.E-04
563	6.62	-5.140456.E-05	-1.096737.E-04
564	6.63	-5.093985.E-05	-1.086889.E-04
565	6.64	-5.048002.E-05	-1.077143.E-04
566	6.65	-5.002501.E-05	-1.067499.E-04
567	6.66	-4.957477.E-05	-1.057954.E-04
568	6.67	-4.912922.E-05	-1.048508.E-04
569	6.68	-4.868833.E-05	-1.039160.E-04
570	6.69	-4.825204.E-05	-1.029908.E-04
571	6.70	-4.782028.E-05	-1.020752.E-04
572	6.71	-4.739301.E-05	-1.011690.E-04
573	6.72	-4.697018.E-05	-1.002721.E-04
574	6.73	-4.655173.E-05	-9.938441.E-05
575	6.74	-4.613761.E-05	-9.850583.E-05
576	6.75	-4.572777.E-05	-9.763624.E-05
577	6.76	-4.532215.E-05	-9.677555.E-05
578	6.77	-4.492072.E-05	-9.592365.E-05
579	6.78	-4.452342.E-05	-9.508044.E-05
580	6.79	-4.413020.E-05	-9.424582.E-05
581	6.80	-4.374102.E-05	-9.341968.E-05
582	6.81	-4.335582.E-05	-9.260194.E-05
583	6.82	-4.297457.E-05	-9.179249.E-05
584	6.83	-4.259721.E-05	-9.099125.E-05
585	6.84	-4.222370.E-05	-9.019811.E-05
586	6.85	-4.185400.E-05	-8.941298.E-05
587	6.86	-4.148806.E-05	-8.863577.E-05
588	6.87	-4.112584.E-05	-8.786640.E-05
589	6.88	-4.076729.E-05	-8.710477.E-05
590	6.89	-4.041238.E-05	-8.635079.E-05
591	6.90	-4.006105.E-05	-8.560438.E-05
592	6.91	-3.971328.E-05	-8.486545.E-05
593	6.92	-3.936902.E-05	-8.413392.E-05
594	6.93	-3.902822.E-05	-8.340970.E-05
595	6.94	-3.869086.E-05	-8.269270.E-05
596	6.95	-3.835688.E-05	-8.198286.E-05
597	6.96	-3.802626.E-05	-8.128008.E-05
598	6.97	-3.769894.E-05	-8.058429.E-05
599	6.98	-3.737491.E-05	-7.989541.E-05
600	6.99	-3.705411.E-05	-7.921336.E-05
601	7.00	-3.673651.E-05	-7.853807.E-05
602	7.01	-3.642208.E-05	-7.786945.E-05
603	7.02	-3.611078.E-05	-7.720744.E-05
604	7.03	-3.580257.E-05	-7.655196.E-05
605	7.04	-3.549742.E-05	-7.590293.E-05
606	7.05	-3.519529.E-05	-7.526029.E-05
607	7.06	-3.489615.E-05	-7.462396.E-05
608	7.07	-3.459997.E-05	-7.399388.E-05
609	7.08	-3.430671.E-05	-7.336997.E-05
610	7.09	-3.401635.E-05	-7.275216.E-05
611	7.10	-3.372884.E-05	-7.214040.E-05
612	7.11	-3.344416.E-05	-7.153460.E-05
613	7.12	-3.316227.E-05	-7.093471.E-05
614	7.13	-3.288314.E-05	-7.034065.E-05
615	7.14	-3.260675.E-05	-6.975238.E-05
616	7.15	-3.233306.E-05	-6.916981.E-05
617	7.16	-3.206204.E-05	-6.859289.E-05
618	7.17	-3.179366.E-05	-6.802156.E-05
619	7.18	-3.152789.E-05	-6.745575.E-05
620	7.19	-3.126471.E-05	-6.689541.E-05
621	7.20	-3.100409.E-05	-6.634047.E-05
622	7.21	-3.074599.E-05	-6.579088.E-05
623	7.22	-3.049039.E-05	-6.524657.E-05
624	7.23	-3.023727.E-05	-6.470749.E-05
625	7.24	-2.998658.E-05	-6.417359.E-05
626	7.25	-2.973832.E-05	-6.364480.E-05
627	7.26	-2.949244.E-05	-6.312107.E-05
628	7.27	-2.924894.E-05	-6.260234.E-05
629	7.28	-2.900777.E-05	-6.208857.E-05
630	7.29	-2.876891.E-05	-6.157970.E-05
631	7.30	-2.853234.E-05	-6.107566.E-05
632	7.31	-2.829804.E-05	-6.057643.E-05
633	7.32	-2.806597.E-05	-6.008193.E-05
634	7.33	-2.783612.E-05	-5.959212.E-05
635	7.34	-2.760846.E-05	-5.910695.E-05
636	7.35	-2.738296.E-05	-5.862636.E-05
637	7.36	-2.715961.E-05	-5.815032.E-05
638	7.37	-2.693838.E-05	-5.767877.E-05
639	7.38	-2.671924.E-05	-5.721166.E-05
640	7.39	-2.650218.E-05	-5.674895.E-05
641	7.40	-2.628717.E-05	-5.629058.E-05
642	7.41	-2.607419.E-05	-5.583652.E-05
643	7.42	-2.586322.E-05	-5.538671.E-05
644	7.43	-2.565423.E-05	-5.494111.E-05
645	7.44	-2.544721.E-05	-5.449968.E-05
646	7.45	-2.524213.E-05	-5.406237.E-05
647	7.46	-2.503898.E-05	-5.362914.E-05
648	7.47	-2.483773.E-05	-5.319994.E-05
649	7.48	-2.463836.E-05	-5.277473.E-05
650	7.49	-2.444086.E-05	-5.235348.E-05
651	7.50	-2.424520.E-05	-5.193613.E-05
652	7.51	-2.405136.E-05	-5.152265.E-05
653	7.52	-2.385932.E-05	-5.111300.E-05
654	7.53	-2.366907.E-05	-5.070713.E-05
655	7.54	-2.348058.E-05	-5.030500.E-05
656	7.55	-2.329384.E-05	-4.990659.E-05
657	7.56	-2.310883.E-05	-4.951184.E-05
658	7.57	-2.292553.E-05	-4.912072.E-05
659	7.58	-2.274393.E-05	-4.873320.E-05
660	7.59	-2.256399.E-05	-4.834923.E-05
661	7.60	-2.238572.E-05	-4.796877.E-05
662	7.61	-2.220908.E-05	-4.759180.E-05
663	7.62	-2.203407.E-05	-4.721827.E-05
664	7.63	-2.186066.E-05	-4.684815.E-05
665	7.64	-2.168884.E-05	-4.648140.E-05
666	7.65	-2.151859.E-05	-4.611799.E-05
667	7.66	-2.134990.E-05	-4.575788.E-05
668	7.67	-2.118275.E-05	-4.540105.E-05
669	7.68	-2.101712.E-05	-4.504745.E-05
670	7.69	-2.085300.E-05	-4.469705.E-05
671	7.70	-2.069037.E-05	-4.434982.E-05
672	7.71	-2.052922.E-05	-4.400573.E-05
673	7.72	-2.036952.E-05	-4.366474.E-05
674	7.73	-2.021128.E-05	-4.332682.E-05
675	7.74	-2.005446.E-05	-4.299195.E-05
676	7.75	-1.989907.E-05	-4.266009.E-05
677	7.76	-1.974507.E-05	-4.233120.E-05
678	7.77	-1.959246.E-05	-4.200527.E-05
679	7.78	-1.944123.E-05	-4.168225.E-05
680	7.79	-1.929135.E-05	-4.136212.E-05
681	7.80	-1.914282.E-05	-4.104486.E-05
682	7.81	-1.899562.E-05	-4.073042.E-05
683	7.82	-1.884974.E-05	-4.041879.E-05
684	7.83	-1.870517.E-05	-4.010992.E-05
685	7.84	-1.856188.E-05	-3.980381.E-05
686	7.85	-1.841987.E-05	-3.950041.E-05
687	7.86	-1.827913.E-05	-3.919970.E-05
688	7.87	-1.813964.E-05	-3.890165.E-05
689	7.88	-1.800139.E-05	-3.860625.E-05
690	7.89	-1.786437.E-05	-3.831345.E-05
691	7.90	-1.772856.E-05	-3.802323.E-05
692	7.91	-1.759395.E-05	-3.773557.E-05
693	7.92	-1.746053.E-05	-3.745044.E-05
694	7.93	-1.732830.E-05	-3.716782.E-05
695	7.94	-1.719722.E-05	-3.688768.E-05
696	7.95	-1.706731.E-05	-3.661000.E-05
697	7.96	-1.693853.E-05	-3.633475.E-05
698	7.97	-1.681089.E-05	-3.606191.E-05
699	7.98	-1.668436.E-05	-3.579145.E-05
700	7.99	-1.655895.E-05	-3.552335.E-05
701	8.00	-1.643463.E-05	-3.525759.E-05
702	8.01	-1.631140.E-05	-3.499414.E-05
703	8.02	-1.618925.E-05	-3.473298.E-05
704	8.03	-1.606816.E-05	-3.447409.E-05
705	8.04	-1.594813.E-05	-3.421745.E-05
706	8.05	-1.582914.E-05	-3.396303.E-05
707	8.06	-1.571119.E-05	-3.371081.E-05
708	8.07	-1.559426.E-05	-3.346077.E-05
709	8.08	-1.547834.E-05	-3.321289.E-05
710	8.09	-1.536342.E-05	-3.296714.E-05
711	8.10	-1.524950.E-05	-3.272351.E-05
712	8.11	-1.513657.E-05	-3.248198.E-05
713	8.12	-1.502460.E-05	-3.224252.E-05
714	8.13	-1.491361.E-05	-3.200512.E-05
715	8.14	-1.480356.E-05	-3.176975.E-05
716	8.15	-1.469447.E-05	-3.153639.E-05
717	8.16	-1.458631.E-05	-3.130503.E-05
718	8.17	-1.447907.E-05	-3.107564.E-05
719	8.18	-1.437276.E-05	-3.084822.E-05
720	8.19	-1.426735.E-05	-3.062272.E-05
721	8.20	-1.416285.E-05	-3.039915.E-05
722	8.21	-1.405923.E-05	-3.017748.E-05
723	8.22	-1.395650.E-05	-2.995769.E-05
724	8.23	-1.385465.E-05	-2.973976.E-05
725	8.24	-1.375366.E-05	-2.952368.E-05
726	8.25	-1.365352.E-05	-2.930942.E-05
727	8.26	-1.355424.E-05	-2.909697.E-05
728	8.27	-1.345580.E-05	-2.888632.E-05
729	8.28	-1.335819.E-05	-2.867744.E-05
730	8.29	-1.326140.E-05	-2.847032.E-05
731	8.30	-1.316543.E-05	-2.826495.E-05
732	8.31	-1.307028.E-05	-2.806129.E-05
733	8.32	-1.297592.E-05	-2.785935.E-05
734	8.33	-1.288235.E-05	-2.765909.E-05
735	8.34	-1.278957.E-05	-2.746052.E-05
736	8.35	-1.269757.E-05	-2.726360.E-05
737	8.36	-1.260635.E-05	-2.706832.E-05
738	8.37	-1.251588.E-05	-2.687468.E-05
739	8.38	-1.242617.E-05	-2.668265.E-05
740	8.39	-1.233721.E-05	-2.649221.E-05
741	8.40	-1.224899.E-05	-2.630336.E-05
742	8.41	-1.216151.E-05	-2.611607.E-05
743	8.42	-1.207475.E-05	-2.593034.E-05
744	8.43	-1.198872.E-05	-2.574614.E-05
745	8.44	-1.190340.E-05	-2.556347.E-05
746	8.45	-1.181879.E-05	-2.538231.E-05
747	8.46	-1.173487.E-05	-2.520264.E-05
748	8.47	-1.165166.E-05	-2.502445.E-05
749	8.48	-1.156912.E-05	-2.484773.E-05
750	8.49	-1.148728.E-05	-2.467246.E-05
751	8.50	-1.140610.E-05	-2.449864.E-05
752	8.51	-1.132559.E-05	-2.432624.E-05
753	8.52	-1.124575.E-05	-2.415525.E-05
754	8.53	-1.116656.E-05	-2.398566.E-05
755	8.54	-1.108802.E-05	-2.381745.E-05
756	8.55	-1.101013.E-05	-2.365062.E-05
757	8.56	-1.093287.E-05	-2.348515.E-05
758	8.57	-1.085624.E-05	-2.332103.E-05
759	8.58	-1.078024.E-05	-2.315825.E-05
760	8.59	-1.070486.E-05	-2.299679.E-05
761	8.60	-1.063009.E-05	-2.283663.E-05
762	8.61	-1.055594.E-05	-2.267778.E-05
763	8.62	-1.048238.E-05	-2.252022.E-05
764	8.63	-1.040942.E-05	-2.236393.E-05
765	8.64	-1.033706.E-05	-2.220890.E-05
766	8.65	-1.026528.E-05	-2.205512.E-05
767	8.66	-1.019408.E-05	-2.190258.E-05
768	8.67	-1.012345.E-05	-2.175128.E-05
769	8.68	-1.005340.E-05	-2.160119.E-05
770	8.69	-9.983910.E-06	-2.145230.E-05
771	8.70	-9.914981.E-06	-2.130461.E-05
772	8.71	-9.846606.E-06	-2.115811.E-05
773	8.72	-9.778781.E-06	-2.101278.E-05
774	8.73	-9.711499.E-06	-2.086861.E-05
775	8.74	-9.644758.E-06	-2.072559.E-05
776	8.75	-9.578551.E-06	-2.058371.E-05
777	8.76	-9.512873.E-06	-2.044297.E-05
778	8.77	-9.447720.E-06	-2.030335.E-05
779	8.78	-9.383087.E-06	-2.016483.E-05
780	8.79	-9.318969.E-06	-2.002742.E-05
781	8.80	-9.255362.E-06	-1.989110.E-05
782	8.81	-9.192261.E-06	-1.975586.E-05
783	8.82	-9.129661.E-06	-1.962169.E-05
784	8.83	-9.067558.E-06	-1.948858.E-05
785	8.84	-9.005947.E-06	-1.935652.E-05
786	8.85	-8.944824.E-06	-1.922551.E-05
787	8.86	-8.884184.E-06	-1.909553.E-05
788	8.87	-8.824023.E-06	-1.896657.E-05
789	8.88	-8.764337.E-06	-1.883862.E-05
790	8.89	-8.705122.E-06	-1.871168.E-05
791	8.90	-8.646373.E-06	-1.858574.E-05
792	8.91	-8.588086.E-06	-1.846079.E-05
793	8.92	-8.530256.E-06	-1.833681.E-05
794	8.93	-8.472881.E-06	-1.821380.E-05
795	8.94	-8.415955.E-06	-1.809176.E-05
796	8.95	-8.359475.E-06	-1.797067.E-05
797	8.96	-8.303436.E-06	-1.785052.E-05
798	8.97	-8.247836.E-06	-1.773130.E-05
799	8.98	-8.192669.E-06	-1.761302.E-05
800	8.99	-8.137932.E-06	-1.749565.E-05
801	9.00	-8.083622.E-06	-1.737920.E-05
802	9.01	-8.029734.E-06	-1.726364.E-05
803	9.02	-7.976264.E-06	-1.714899.E-05
804	9.03	-7.923209.E-06	-1.703522.E-05
805	9.04	-7.870566.E-06	-1.692233.E-05
806	9.05	-7.818330.E-06	-1.681031.E-05
807	9.06	-7.766499.E-06	-1.669915.E-05
808	9.07	-7.715068.E-06	-1.658885.E-05
809	9.08	-7.664033.E-06	-1.647940.E-05
810	9.09	-7.613392.E-06	-1.637079.E-05
811	9.10	-7.563141.E-06	-1.626301.E-05
812	9.11	-7.513277.E-06	-1.615607.E-05
813	9.12	-7.463796.E-06	-1.604994.E-05
814	9.13	-7.414694.E-06	-1.594462.E-05
815	9.14	-7.365969.E-06	-1.584011.E-05
816	9.15	-7.317618.E-06	-1.573639.E-05
817	9.16	-7.269636.E-06	-1.563347.E-05
818	9.17	-7.222020.E-06	-1.553133.E-05
819	9.18	-7.174769.E-06	-1.542997.E-05
820	9.19	-7.127877.E-06	-1.532938.E-05
821	9.20	-7.081343.E-06	-1.522955.E-05
822	9.21	-7.035163.E-06	-1.513048.E-05
823	9.22	-6.989333.E-06	-1.503216.E-05
824	9.23	-6.943852.E-06	-1.493459.E-05
825	9.24	-6.898716.E-06	-1.483775.E-05
826	9.25	-6.853921.E-06	-1.474165.E-05
827	9.26	-6.809466.E-06	-1.464627.E-05
828	9.27	-6.765347.E-06	-1.455161.E-05
829	9.28	-6.721560.E-06	-1.445766.E-05
830	9.29	-6.678104.E-06	-1.436442.E-05
831	9.30	-6.634976.E-06	-1.427188.E-05
832	9.31	-6.592172.E-06	-1.418003.E-05
833	9.32	-6.549690.E-06	-1.408887.E-05
834	9.33	-6.507527.E-06	-1.399840.E-05
835	9.34	-6.465681.E-06	-1.390860.E-05
836	9.35	-6.424148.E-06	-1.381947.E-05
837	9.36	-6.382926.E-06	-1.373101.E-05
838	9.37	-6.342012.E-06	-1.364321.E-05
839	9.38	-6.301404.E-06	-1.355606.E-05
840	9.39	-6.261099.E-06	-1.346957.E-05
841	9.40	-6.221095.E-06	-1.338371.E-05
842	9.41	-6.181388.E-06	-1.329849.E-05
843	9.42	-6.141977.E-06	-1.321391.E-05
844	9.43	-6.102858.E-06	-1.312995.E-05
845	9.44	-6.064031.E-06	-1.304661.E-05
846	9.45	-6.025491.E-06	-1.296389.E-05
847	9.46	-5.987236.E-06	-1.288178.E-05
848	9.47	-5.949265.E-06	-1.280028.E-05
849	9.48	-5.911574.E-06	-1.271937.E-05
850	9.49	-5.874161.E-06	-1.263907.E-05
851	9.50	-5.837025.E-06	-1.255935.E-05
852	9.51	-5.800162.E-06	-1.248022.E-05
853	9.52	-5.763571.E-06	-1.240167.E-05
854	9.53	-5.727248.E-06	-1.232370.E-05
855	9.54	-5.691193.E-06	-1.224630.E-05
856	9.55	-5.655402.E-06	-1.216946.E-05
857	9.56	-5.619873.E-06	-1.209319.E-05
858	9.57	-5.584605.E-06	-1.201747.E-05
859	9.58	-5.549594.E-06	-1.194230.E-05
860	9.59	-5.514840.E-06	-1.186769.E-05
861	9.60	-5.480339.E-06	-1.179362.E-05
862	9.61	-5.446089.E-06	-1.172008.E-05
863	9.62	-5.412090.E-06	-1.164708.E-05
864	9.63	-5.378337.E-06	-1.157461.E-05
865	9.64	-5.344830.E-06	-1.150266.E-05
866	9.65	-5.311566.E-06	-1.143124.E-05
867	9.66	-5.278544.E-06	-1.136033.E-05
868	9.67	-5.245761.E-06	-1.128994.E-05
869	9.68	-5.213215.E-06	-1.122005.E-05
870	9.69	-5.180904.E-06	-1.115067.E-05
871	9.70	-5.148827.E-06	-1.108179.E-05
872	9.71	-5.116982.E-06	-1.101340.E-05
873	9.72	-5.085366.E-06	-1.094551.E-05
874	9.73	-5.053977.E-06	-1.087810.E-05
875	9.74	-5.022815.E-06	-1.081118.E-05
876	9.75	-4.991877.E-06	-1.074474.E-05
877	9.76	-4.961160.E-06	-1.067877.E-05
878	9.77	-4.930664.E-06	-1.061327.E-05
879	9.78	-4.900387.E-06	-1.054825.E-05
880	9.79	-4.870326.E-06	-1.048368.E-05
881	9.80	-4.840480.E-06	-1.041958.E-05
882	9.81	-4.810848.E-06	-1.035593.E-05
883	9.82	-4.781427.E-06	-1.029274.E-05
884	9.83	-4.752215.E-06	-1.023000.E-05
885	9.84	-4.723212.E-06	-1.016770.E-05
886	9.85	-4.694415.E-06	-1.010585.E-05
887	9.86	-4.665822.E-06	-1.004443.E-05
888	9.87	-4.637433.E-06	-9.983447.E-06
889	9.88	-4.609245.E-06	-9.922896.E-06
890	9.89	-4.581257.E-06	-9.862774.E-06
891	9.90	-4.553466.E-06	-9.803076.E-06
892	9.91	-4.525873.E-06	-9.743799.E-06
893	9.92	-4.498474.E-06	-9.684940.E-06
894	9.93	-4.471269.E-06	-9.626496.E-06
895	9.94	-4.444255.E-06	-9.568462.E-06
896	9.95	-4.417432.E-06	-9.510836.E-06
897	9.96	-4.390797.E-06	-9.453615.E-06
898	9.97	-4.364350.E-06	-9.396794.E-06
899	9.98	-4.338088.E-06	-9.340372.E-06
900	9.99	-4.312010.E-06	-9.284345.E-06
901	10.00	-4.286116.E-06	-9.228709.E-06
902	10.01	-4.260402.E-06	-9.173462.E-06
903	10.02	-4.234868.E-06	-9.118600.E-06
904	10.03	-4.209513.E-06	-9.064121.E-06
905	10.04	-4.184335.E-06	-9.010021.E-06
906	10.05	-4.159332.E-06	-8.956297.E-06
907	10.06	-4.134504.E-06	-8.902947.E-06
908	10.07	-4.109848.E-06	-8.849967.E-06
909	10.08	-4.085363.E-06	-8.797354.E-06
910	10.09	-4.061049.E-06	-8.745106.E-06
911	10.10	-4.036903.E-06	-8.693220.E-06
912	10.11	-4.012925.E-06	-8.641693.E-06
913	10.12	-3.989113.E-06	-8.590521.E-06
914	10.13	-3.965465.E-06	-8.539703.E-06
915	10.14	-3.941981.E-06	-8.489235.E-06
916	10.15	-3.918659.E-06	-8.439114.E-06
917	10.16	-3.895498.E-06	-8.389339.E-06
918	10.17	-3.872496.E-06	-8.339905.E-06
919	10.18	-3.849653.E-06	-8.290812.E-06
920	10.19	-3.826967.E-06	-8.242055.E-06
921	10.20	-3.804436.E-06	-8.193632.E-06
922	10.21	-3.782061.E-06	-8.145541.E-06
923	10.22	-3.759838.E-06	-8.097778.E-06
924	10.23	-3.737768.E-06	-8.050342.E-06
925	10.24	-3.715849.E-06	-8.003230.E-06
926	10.25	-3.694080.E-06	-7.956440.E-06
927	10.26	-3.672460.E-06	-7.909968.E-06
928	10.27	-3.650987.E-06	-7.863813.E-06
929	10.28	-3.629660.E-06	-7.817971.E-06
930	10.29	-3.608479.E-06	-7.772441.E-06
931	10.30	-3.587441.E-06	-7.727220.E-06
932	10.31	-3.566547.E-06	-7.682306.E-06
933	10.32	-3.545795.E-06	-7.637695.E-06
934	10.33	-3.525183.E-06	-7.593387.E-06
935	10.34	-3.504711.E-06	-7.549379.E-06
936	10.35	-3.484378.E-06	-7.505668.E-06
937	10.36	-3.464182.E-06	-7.462251.E-06
938	10.37	-3.444122.E-06	-7.419128.E-06
939	10.38	-3.424198.E-06	-7.376295.E-06
940	10.39	-3.404409.E-06	-7.333750.E-06
941	10.40	-3.384752.E-06	-7.291491.E-06
942	10.41	-3.365228.E-06	-7.249516.E-06
943	10.42	-3.345836.E-06	-7.207823.E-06
944	10.43	-3.326573.E-06	-7.166409.E-06
945	10.44	-3.307440.E-06	-7.125272.E-06
946	10.45	-3.288435.E-06	-7.084411.E-06
947	10.46	-3.269558.E-06	-7.043823.E-06
948	10.47	-3.250807.E-06	-7.003506.E-06
949	10.48	-3.232181.E-06	-6.963458.E-06
950	10.49	-3.213680.E-06	-6.923676.E-06
951	10.50	-3.195302.E-06	-6.884160.E-06
952	10.51	-3.177046.E-06	-6.844907.E-06
953	10.52	-3.158912.E-06	-6.805914.E-06
954	10.53	-3.140899.E-06	-6.767180.E-06
955	10.54	-3.123006.E-06	-6.728704.E-06
956	10.55	-3.105231.E-06	-6.690482.E-06
957	10.56	-3.087575.E-06	-6.652514.E-06
958	10.57	-3.070035.E-06	-6.614796.E-06
959	10.58	-3.052612.E-06	-6.577328.E-06
960	10.59	-3.035304.E-06	-6.540107.E-06
961	10.60	-3.018110.E-06	-6.503132.E-06
962	10.61	-3.001030.E-06	-6.466400.E-06
963	10.62	-2.984062.E-06	-6.429910.E-06
964	10.63	-2.967207.E-06	-6.393661.E-06
965	10.64	-2.950462.E-06	-6.357649.E-06
966	10.65	-2.933828.E-06	-6.321874.E-06
967	10.66	-2.917303.E-06	-6.286334.E-06
968	10.67	-2.900886.E-06	-6.251026.E-06
969	10.68	-2.884577.E-06	-6.215950.E-06
970	10.69	-2.868375.E-06	-6.181103.E-06
971	10.70	-2.852279.E-06	-6.146483.E-06
972	10.71	-2.836289.E-06	-6.112090.E-06
973	10.72	-2.820402.E-06	-6.077921.E-06
974	10.73	-2.804620.E-06	-6.043975.E-06
975	10.74	-2.788941.E-06	-6.010250.E-06
976	10.75	-2.773363.E-06	-5.976744.E-06
977	10.76	-2.757888.E-06	-5.943456.E-06
978	10.77	-2.742513.E-06	-5.910383.E-06
979	10.78	-2.727238.E-06	-5.877526.E-06
980	10.79	-2.712062.E-06	-5.844881.E-06
981	10.80	-2.696984.E-06	-5.812448.E-06
982	10.81	-2.682004.E-06	-5.780225.E-06
983	10.82	-2.667121.E-06	-5.748209.E-06
984	10.83	-2.652335.E-06	-5.716401.E-06
985	10.84	-2.637644.E-06	-5.684798.E-06
986	10.85	-2.623048.E-06	-5.653398.E-06
987	10.86	-2.608546.E-06	-5.622200.E-06
988	10.87	-2.594138.E-06	-5.591204.E-06
989	10.88	-2.579822.E-06	-5.560406.E-06
990	10.89	-2.565599.E-06	-5.529806.E-06
991	10.90	-2.551467.E-06	-5.499402.E-06
992	10.91	-2.537425.E-06	-5.469194.E-06
993	10.92	-2.523474.E-06	-5.439178.E-06
994	10.93	-2.509612.E-06	-5.409355.E-06
995	10.94	-2.495839.E-06	-5.379723.E-06
996	10.95	-2.482154.E-06	-5.350279.E-06
997	10.96	-2.468557.E-06	-5.321024.E-06
998	10.97	-2.455046.E-06	-5.291955.E-06
999	10.98	-2.441622.E-06	-5.263071.E-06
1000	10.99	-2.428283.E-06	-5.234370.E-06
1001	11.00	-2.415029.E-06	-5.205853.E-06
1002	11.01	-2.401860.E-06	-5.177516.E-06
1003	11.02	-2.388774.E-06	-5.149359.E-06
1004	11.03	-2.375772.E-06	-5.121381.E-06
1005	11.04	-2.362851.E-06	-5.093580.E-06
1006	11.05	-2.350013.E-06	-5.065955.E-06
1007	11.06	-2.337256.E-06	-5.038504.E-06
1008	11.07	-2.324580.E-06	-5.011227.E-06
1009	11.08	-2.311984.E-06	-4.984122.E-06
1010	11.09	-2.299468.E-06	-4.957188.E-06
1011	11.10	-2.287031.E-06	-4.930423.E-06
1012	11.11	-2.274672.E-06	-4.903827.E-06
1013	11.12	-2.262391.E-06	-4.877399.E-06
1014	11.13	-2.250187.E-06	-4.851136.E-06
1015	11.14	-2.238060.E-06	-4.825038.E-06
1016	11.15	-2.226009.E-06	-4.799104.E-06
1017	11.16	-2.214034.E-06	-4.773332.E-06
1018	11.17	-2.202134.E-06	-4.747722.E-06
1019	11.18	-2.190308.E-06	-4.722272.E-06
1020	11.19	-2.178557.E-06	-4.696981.E-06
1021	11.20	-2.166879.E-06	-4.671848.E-06
1022	11.21	-2.155274.E-06	-4.646871.E-06
1023	11.22	-2.143741.E-06	-4.622050.E-06
1024	11.23	-2.132281.E-06	-4.597384.E-06
1025	11.24	-2.120892.E-06	-4.572871.E-06
1026	11.25	-2.109574.E-06	-4.548511.E-06
1027	11.26	-2.098326.E-06	-4.524302.E-06
1028	11.27	-2.087148.E-06	-4.500243.E-06
1029	11.28	-2.076040.E-06	-4.476333.E-06
1030	11.29	-2.065000.E-06	-4.452571.E-06
1031	11.30	-2.054029.E-06	-4.428957.E-06
1032	11.31	-2.043126.E-06	-4.405488.E-06
1033	11.32	-2.032290.E-06	-4.382165.E-06
1034	11.33	-2.021522.E-06	-4.358985.E-06
1035	11.34	-2.010820.E-06	-4.335948.E-06
1036	11.35	-2.000184.E-06	-4.313053.E-06
1037	11.36	-1.989613.E-06	-4.290299.E-06
1038	11.37	-1.979108.E-06	-4.267685.E-06
1039	11.38	-1.968667.E-06	-4.245210.E-06
1040	11.39	-1.958291.E-06	-4.222873.E-06
1041	11.40	-1.947978.E-06	-4.200673.E-06
1042	11.41	-1.937729.E-06	-4.178609.E-06
1043	11.42	-1.927543.E-06	-4.156680.E-06
1044	11.43	-1.917419.E-06	-4.134886.E-06
1045	11.44	-1.907357.E-06	-4.113224.E-06
1046	11.45	-1.897356.E-06	-4.091695.E-06
1047	11.46	-1.887417.E-06	-4.070297.E-06
1048	11.47	-1.877538.E-06	-4.049030.E-06
1049	11.48	-1.867720.E-06	-4.027892.E-06
1050	11.49	-1.857962.E-06	-4.006883.E-06
1051	11.50	-1.848263.E-06	-3.986001.E-06
1052	11.51	-1.838623.E-06	-3.965247.E-06
1053	11.52	-1.829041.E-06	-3.944618.E-06
1054	11.53	-1.819518.E-06	-3.924115.E-06
1055	11.54	-1.810053.E-06	-3.903736.E-06
1056	11.55	-1.800645.E-06	-3.883480.E-06
1057	11.56	-1.791294.E-06	-3.863346.E-06
1058	11.57	-1.782000.E-06	-3.843335.E-06
1059	11.58	-1.772762.E-06	-3.823444.E-06
1060	11.59	-1.763580.E-06	-3.803673.E-06
1061	11.60	-1.754453.E-06	-3.784022.E-06
1062	11.61	-1.745381.E-06	-3.764488.E-06
1063	11.62	-1.736364.E-06	-3.745073.E-06
1064	11.63	-1.727402.E-06	-3.725774.E-06
1065	11.64	-1.718493.E-06	-3.706591.E-06
1066	11.65	-1.709638.E-06	-3.687523.E-06
1067	11.66	-1.700836.E-06	-3.668569.E-06
1068	11.67	-1.692087.E-06	-3.649730.E-06
1069	11.68	-1.683390.E-06	-3.631002.E-06
1070	11.69	-1.674745.E-06	-3.612387.E-06
1071	11.70	-1.666153.E-06	-3.593883.E-06
1072	11.71	-1.657611.E-06	-3.575490.E-06
1073	11.72	-1.649121.E-06	-3.557207.E-06
1074	11.73	-1.640681.E-06	-3.539032.E-06
1075	11.74	-1.632292.E-06	-3.520966.E-06
1076	11.75	-1.623953.E-06	-3.503007.E-06
1077	11.76	-1.615663.E-06	-3.485155.E-06
1078	11.77	-1.607423.E-06	-3.467409.E-06
1079	11.78	-1.599232.E-06	-3.449768.E-06
1080	11.79	-1.591089.E-06	-3.432232.E-06
1081	11.80	-1.582995.E-06	-3.414800.E-06
1082	11.81	-1.574949.E-06	-3.397471.E-06
1083	11.82	-1.566951.E-06	-3.380245.E-06
1084	11.83	-1.558999.E-06	-3.363120.E-06
1085	11.84	-1.551095.E-06	-3.346097.E-06
1086	11.85	-1.543238.E-06	-3.329174.E-06
1087	11.86	-1.535427.E-06	-3.312351.E-06
1088	11.87	-1.527662.E-06	-3.295627.E-06
1089	11.88	-1.519943.E-06	-3.279001.E-06
1090	11.89	-1.512269.E-06	-3.262474.E-06
1091	11.90	-1.504641.E-06	-3.246043.E-06
1092	11.91	-1.497057.E-06	-3.229709.E-06
1093	11.92	-1.489518.E-06	-3.213470.E-06
1094	11.93	-1.482024.E-06	-3.197327.E-06
1095	11.94	-1.474573.E-06	-3.181279.E-06
1096	11.95	-1.467166.E-06	-3.165324.E-06
1097	11.96	-1.459802.E-06	-3.149462.E-06
1098	11.97	-1.452482.E-06	-3.133694.E-06
1099	11.98	-1.445204.E-06	-3.118017.E-06
1100	11.99	-1.437969.E-06	-3.102432.E-06
1101	12.00	-1.430775.E-06	-3.086937.E-06
1102	12.01	-1.423624.E-06	-3.071533.E-06
1103	12.02	-1.416515.E-06	-3.056218.E-06
1104	12.03	-1.409447.E-06	-3.040993.E-06
1105	12.04	-1.402420.E-06	-3.025855.E-06
1106	12.05	-1.395434.E-06	-3.010806.E-06
1107	12.06	-1.388489.E-06	-2.995844.E-06
1108	12.07	-1.381583.E-06	-2.980969.E-06
1109	12.08	-1.374718.E-06	-2.966179.E-06
1110	12.09	-1.367893.E-06	-2.951476.E-06
1111	12.10	-1.361107.E-06	-2.936857.E-06
1112	12.11	-1.354361.E-06	-2.922323.E-06
1113	12.12	-1.347653.E-06	-2.907872.E-06
1114	12.13	-1.340984.E-06	-2.893505.E-06
1115	12.14	-1.334354.E-06	-2.879221.E-06
1116	12.15	-1.327762.E-06	-2.865018.E-06
1117	12.16	-1.321207.E-06	-2.850898.E-06
1118	12.17	-1.314691.E-06	-2.836858.E-06
1119	12.18	-1.308212.E-06	-2.822900.E-06
1120	12.19	-1.301770.E-06	-2.809021.E-06
1121	12.20	-1.295365.E-06	-2.795222.E-06
1122	12.21	-1.288997.E-06	-2.781502.E-06
1123	12.22	-1.282666.E-06	-2.767860.E-06
1124	12.23	-1.276371.E-06	-2.754297.E-06
1125	12.24	-1.270111.E-06	-2.740810.E-06
1126	12.25	-1.263888.E-06	-2.727401.E-06
1127	12.26	-1.257700.E-06	-2.714069.E-06
1128	12.27	-1.251548.E-06	-2.700812.E-06
1129	12.28	-1.245430.E-06	-2.687631.E-06
1130	12.29	-1.239348.E-06	-2.674525.E-06
1131	12.30	-1.233300.E-06	-2.661493.E-06
1132	12.31	-1.227286.E-06	-2.648535.E-06
1133	12.32	-1.221307.E-06	-2.635651.E-06
1134	12.33	-1.215361.E-06	-2.622840.E-06
1135	12.34	-1.209450.E-06	-2.610102.E-06
1136	12.35	-1.203572.E-06	-2.597436.E-06
1137	12.36	-1.197727.E-06	-2.584841.E-06
1138	12.37	-1.191915.E-06	-2.572318.E-06
1139	12.38	-1.186136.E-06	-2.559865.E-06
1140	12.39	-1.180390.E-06	-2.547483.E-06
1141	12.40	-1.174676.E-06	-2.535170.E-06
1142	12.41	-1.168995.E-06	-2.522927.E-06
1143	12.42	-1.163346.E-06	-2.510753.E-06
1144	12.43	-1.157728.E-06	-2.498647.E-06
1145	12.44	-1.152142.E-06	-2.486609.E-06
1146	12.45	-1.146588.E-06	-2.474639.E-06
1147	12.46	-1.141064.E-06	-2.462736.E-06
1148	12.47	-1.135572.E-06	-2.450900.E-06
1149	12.48	-1.130111.E-06	-2.439130.E-06
1150	12.49	-1.124680.E-06	-2.427427.E-06
1151	12.50	-1.119280.E-06	-2.415788.E-06
1152	12.51	-1.113909.E-06	-2.404215.E-06
1153	12.52	-1.108569.E-06	-2.392706.E-06
1154	12.53	-1.103259.E-06	-2.381262.E-06
1155	12.54	-1.097978.E-06	-2.369881.E-06
1156	12.55	-1.092727.E-06	-2.358564.E-06
1157	12.56	-1.087506.E-06	-2.347309.E-06
1158	12.57	-1.082313.E-06	-2.336118.E-06
1159	12.58	-1.077149.E-06	-2.324988.E-06
1160	12.59	-1.072014.E-06	-2.313921.E-06
1161	12.60	-1.066907.E-06	-2.302914.E-06
1162	12.61	-1.061829.E-06	-2.291969.E-06
1163	12.62	-1.056779.E-06	-2.281085.E-06
1164	12.63	-1.051757.E-06	-2.270261.E-06
1165	12.64	-1.046763.E-06	-2.259496.E-06
1166	12.65	-1.041796.E-06	-2.248791.E-06
1167	12.66	-1.036857.E-06	-2.238146.E-06
1168	12.67	-1.031946.E-06	-2.227559.E-06
1169	12.68	-1.027061.E-06	-2.217030.E-06
1170	12.69	-1.022203.E-06	-2.206560.E-06
1171	12.70	-1.017373.E-06	-2.196147.E-06
1172	12.71	-1.012568.E-06	-2.185791.E-06
1173	12.72	-1.007791.E-06	-2.175492.E-06
1174	12.73	-1.003039.E-06	-2.165250.E-06
1175	12.74	-9.983137.E-07	-2.155064.E-06
1176	12.75	-9.936143.E-07	-2.144934.E-06
1177	12.76	-9.889407.E-07	-2.134860.E-06
1178	12.77	-9.842927.E-07	-2.124841.E-06
1179	12.78	-9.796702.E-07	-2.114876.E-06
1180	12.79	-9.750730.E-07	-2.104966.E-06
1181	12.80	-9.705010.E-07	-2.095110.E-06
1182	12.81	-9.659539.E-07	-2.085308.E-06
1183	12.82	-9.614317.E-07	-2.075560.E-06
1184	12.83	-9.569342.E-07	-2.065864.E-06
1185	12.84	-9.524612.E-07	-2.056222.E-06
1186	12.85	-9.480126.E-07	-2.046631.E-06
1187	12.86	-9.435883.E-07	-2.037093.E-06
1188	12.87	-9.391880.E-07	-2.027607.E-06
1189	12.88	-9.348116.E-07	-2.018172.E-06
1190	12.89	-9.304590.E-07	-2.008789.E-06
1191	12.90	-9.261301.E-07	-1.999456.E-06
1192	12.91	-9.218246.E-07	-1.990174.E-06
1193	12.92	-9.175424.E-07	-1.980942.E-06
1194	12.93	-9.132835.E-07	-1.971760.E-06
1195	12.94	-9.090476.E-07	-1.962628.E-06
1196	12.95	-9.048346.E-07	-1.953545.E-06
1197	12.96	-9.006444.E-07	-1.944511.E-06
1198	12.97	-8.964768.E-07	-1.935526.E-06
1199	12.98	-8.923317.E-07	-1.926589.E-06
1200	12.99	-8.882090.E-07	-1.917700.E-06
